  Raman shift    inc freq             spec           a**2         g**2         d**2
  
 osc           1  nq max           0
       0.00      32262.16         0.32543E+03   0.13560E+03   0.12203E+04   0.00000E+00
       0.00      32302.49         0.32712E+03   0.13630E+03   0.12267E+04   0.00000E+00
       0.00      32342.82         0.32883E+03   0.13702E+03   0.12331E+04   0.00000E+00
       0.00      32383.14         0.33056E+03   0.13774E+03   0.12396E+04   0.00000E+00
       0.00      32423.47         0.33230E+03   0.13846E+03   0.12461E+04   0.00000E+00
       0.00      32463.80         0.33406E+03   0.13920E+03   0.12527E+04   0.00000E+00
       0.00      32504.13         0.33584E+03   0.13994E+03   0.12594E+04   0.00000E+00
       0.00      32544.45         0.33764E+03   0.14069E+03   0.12661E+04   0.00000E+00
       0.00      32584.78         0.33946E+03   0.14145E+03   0.12730E+04   0.00000E+00
       0.00      32625.11         0.34130E+03   0.14221E+03   0.12799E+04   0.00000E+00
       0.00      32665.44         0.34316E+03   0.14299E+03   0.12868E+04   0.00000E+00
       0.00      32705.76         0.34504E+03   0.14377E+03   0.12939E+04   0.00000E+00
       0.00      32746.09         0.34694E+03   0.14456E+03   0.13010E+04   0.00000E+00
       0.00      32786.42         0.34886E+03   0.14536E+03   0.13082E+04   0.00000E+00
       0.00      32826.75         0.35080E+03   0.14617E+03   0.13155E+04   0.00000E+00
       0.00      32867.08         0.35276E+03   0.14699E+03   0.13228E+04   0.00000E+00
       0.00      32907.40         0.35474E+03   0.14781E+03   0.13303E+04   0.00000E+00
       0.00      32947.73         0.35675E+03   0.14865E+03   0.13378E+04   0.00000E+00
       0.00      32988.06         0.35877E+03   0.14949E+03   0.13454E+04   0.00000E+00
       0.00      33028.39         0.36082E+03   0.15035E+03   0.13531E+04   0.00000E+00
       0.00      33068.71         0.36289E+03   0.15121E+03   0.13608E+04   0.00000E+00
       0.00      33109.04         0.36499E+03   0.15208E+03   0.13687E+04   0.00000E+00
       0.00      33149.37         0.36711E+03   0.15297E+03   0.13766E+04   0.00000E+00
       0.00      33189.70         0.36925E+03   0.15386E+03   0.13847E+04   0.00000E+00
       0.00      33230.02         0.37142E+03   0.15476E+03   0.13928E+04   0.00000E+00
       0.00      33270.35         0.37361E+03   0.15567E+03   0.14010E+04   0.00000E+00
       0.00      33310.68         0.37582E+03   0.15660E+03   0.14093E+04   0.00000E+00
       0.00      33351.01         0.37806E+03   0.15753E+03   0.14177E+04   0.00000E+00
       0.00      33391.34         0.38033E+03   0.15848E+03   0.14262E+04   0.00000E+00
       0.00      33431.66         0.38262E+03   0.15943E+03   0.14348E+04   0.00000E+00
       0.00      33471.99         0.38494E+03   0.16040E+03   0.14435E+04   0.00000E+00
       0.00      33512.32         0.38728E+03   0.16137E+03   0.14523E+04   0.00000E+00
       0.00      33552.65         0.38966E+03   0.16236E+03   0.14612E+04   0.00000E+00
       0.00      33592.97         0.39206E+03   0.16336E+03   0.14702E+04   0.00000E+00
       0.00      33633.30         0.39448E+03   0.16437E+03   0.14793E+04   0.00000E+00
       0.00      33673.63         0.39694E+03   0.16540E+03   0.14885E+04   0.00000E+00
       0.00      33713.96         0.39943E+03   0.16643E+03   0.14978E+04   0.00000E+00
       0.00      33754.28         0.40194E+03   0.16748E+03   0.15072E+04   0.00000E+00
       0.00      33794.61         0.40448E+03   0.16854E+03   0.15168E+04   0.00000E+00
       0.00      33834.94         0.40706E+03   0.16961E+03   0.15264E+04   0.00000E+00
       0.00      33875.27         0.40966E+03   0.17070E+03   0.15362E+04   0.00000E+00
       0.00      33915.60         0.41230E+03   0.17180E+03   0.15461E+04   0.00000E+00
       0.00      33955.92         0.41497E+03   0.17291E+03   0.15561E+04   0.00000E+00
       0.00      33996.25         0.41767E+03   0.17403E+03   0.15662E+04   0.00000E+00
       0.00      34036.58         0.42040E+03   0.17517E+03   0.15765E+04   0.00000E+00
       0.00      34076.91         0.42317E+03   0.17633E+03   0.15868E+04   0.00000E+00
       0.00      34117.23         0.42597E+03   0.17749E+03   0.15973E+04   0.00000E+00
       0.00      34157.56         0.42880E+03   0.17867E+03   0.16080E+04   0.00000E+00
       0.00      34197.89         0.43167E+03   0.17987E+03   0.16187E+04   0.00000E+00
       0.00      34238.22         0.43457E+03   0.18108E+03   0.16296E+04   0.00000E+00
       0.00      34278.55         0.43752E+03   0.18230E+03   0.16406E+04   0.00000E+00
       0.00      34318.87         0.44049E+03   0.18354E+03   0.16518E+04   0.00000E+00
       0.00      34359.20         0.44351E+03   0.18480E+03   0.16631E+04   0.00000E+00
       0.00      34399.53         0.44656E+03   0.18607E+03   0.16746E+04   0.00000E+00
       0.00      34439.86         0.44965E+03   0.18736E+03   0.16861E+04   0.00000E+00
       0.00      34480.18         0.45278E+03   0.18867E+03   0.16979E+04   0.00000E+00
       0.00      34520.51         0.45595E+03   0.18999E+03   0.17098E+04   0.00000E+00
       0.00      34560.84         0.45916E+03   0.19132E+03   0.17218E+04   0.00000E+00
       0.00      34601.17         0.46241E+03   0.19268E+03   0.17340E+04   0.00000E+00
       0.00      34641.49         0.46571E+03   0.19405E+03   0.17464E+04   0.00000E+00
       0.00      34681.82         0.46904E+03   0.19544E+03   0.17589E+04   0.00000E+00
       0.00      34722.15         0.47242E+03   0.19685E+03   0.17715E+04   0.00000E+00
       0.00      34762.48         0.47585E+03   0.19828E+03   0.17844E+04   0.00000E+00
       0.00      34802.81         0.47932E+03   0.19972E+03   0.17974E+04   0.00000E+00
       0.00      34843.13         0.48283E+03   0.20119E+03   0.18106E+04   0.00000E+00
       0.00      34883.46         0.48639E+03   0.20267E+03   0.18239E+04   0.00000E+00
       0.00      34923.79         0.49000E+03   0.20417E+03   0.18375E+04   0.00000E+00
       0.00      34964.12         0.49366E+03   0.20570E+03   0.18512E+04   0.00000E+00
       0.00      35004.44         0.49737E+03   0.20724E+03   0.18651E+04   0.00000E+00
       0.00      35044.77         0.50112E+03   0.20881E+03   0.18792E+04   0.00000E+00
       0.00      35085.10         0.50493E+03   0.21039E+03   0.18934E+04   0.00000E+00
       0.00      35125.43         0.50879E+03   0.21200E+03   0.19079E+04   0.00000E+00
       0.00      35165.75         0.51270E+03   0.21363E+03   0.19226E+04   0.00000E+00
       0.00      35206.08         0.51667E+03   0.21529E+03   0.19375E+04   0.00000E+00
       0.00      35246.41         0.52069E+03   0.21696E+03   0.19525E+04   0.00000E+00
       0.00      35286.74         0.52477E+03   0.21866E+03   0.19678E+04   0.00000E+00
       0.00      35327.07         0.52890E+03   0.22038E+03   0.19833E+04   0.00000E+00
       0.00      35367.39         0.53309E+03   0.22213E+03   0.19990E+04   0.00000E+00
       0.00      35407.72         0.53734E+03   0.22390E+03   0.20150E+04   0.00000E+00
       0.00      35448.05         0.54166E+03   0.22570E+03   0.20312E+04   0.00000E+00
       0.00      35488.38         0.54603E+03   0.22752E+03   0.20476E+04   0.00000E+00
       0.00      35528.70         0.55046E+03   0.22937E+03   0.20642E+04   0.00000E+00
       0.00      35569.03         0.55496E+03   0.23124E+03   0.20811E+04   0.00000E+00
       0.00      35609.36         0.55953E+03   0.23314E+03   0.20982E+04   0.00000E+00
       0.00      35649.69         0.56416E+03   0.23507E+03   0.21155E+04   0.00000E+00
       0.00      35690.01         0.56886E+03   0.23703E+03   0.21332E+04   0.00000E+00
       0.00      35730.34         0.57363E+03   0.23902E+03   0.21510E+04   0.00000E+00
       0.00      35770.67         0.57847E+03   0.24104E+03   0.21692E+04   0.00000E+00
       0.00      35811.00         0.58338E+03   0.24308E+03   0.21876E+04   0.00000E+00
       0.00      35851.33         0.58836E+03   0.24516E+03   0.22063E+04   0.00000E+00
       0.00      35891.65         0.59342E+03   0.24727E+03   0.22253E+04   0.00000E+00
       0.00      35931.98         0.59855E+03   0.24941E+03   0.22445E+04   0.00000E+00
       0.00      35972.31         0.60377E+03   0.25158E+03   0.22641E+04   0.00000E+00
       0.00      36012.64         0.60906E+03   0.25378E+03   0.22839E+04   0.00000E+00
       0.00      36052.96         0.61444E+03   0.25602E+03   0.23041E+04   0.00000E+00
       0.00      36093.29         0.61989E+03   0.25830E+03   0.23245E+04   0.00000E+00
       0.00      36133.62         0.62544E+03   0.26061E+03   0.23453E+04   0.00000E+00
       0.00      36173.95         0.63107E+03   0.26295E+03   0.23664E+04   0.00000E+00
       0.00      36214.27         0.63678E+03   0.26534E+03   0.23879E+04   0.00000E+00
       0.00      36254.60         0.64259E+03   0.26776E+03   0.24097E+04   0.00000E+00
       0.00      36294.93         0.64850E+03   0.27022E+03   0.24318E+04   0.00000E+00
       0.00      36335.26         0.65449E+03   0.27271E+03   0.24543E+04   0.00000E+00
       0.00      36375.59         0.66058E+03   0.27525E+03   0.24771E+04   0.00000E+00
       0.00      36415.91         0.66677E+03   0.27783E+03   0.25003E+04   0.00000E+00
       0.00      36456.24         0.67307E+03   0.28045E+03   0.25239E+04   0.00000E+00
       0.00      36496.57         0.67946E+03   0.28312E+03   0.25479E+04   0.00000E+00
       0.00      36536.90         0.68596E+03   0.28583E+03   0.25723E+04   0.00000E+00
       0.00      36577.22         0.69257E+03   0.28858E+03   0.25971E+04   0.00000E+00
       0.00      36617.55         0.69929E+03   0.29138E+03   0.26223E+04   0.00000E+00
       0.00      36657.88         0.70612E+03   0.29423E+03   0.26479E+04   0.00000E+00
       0.00      36698.21         0.71307E+03   0.29712E+03   0.26740E+04   0.00000E+00
       0.00      36738.53         0.72014E+03   0.30007E+03   0.27005E+04   0.00000E+00
       0.00      36778.86         0.72733E+03   0.30306E+03   0.27274E+04   0.00000E+00
       0.00      36819.19         0.73464E+03   0.30611E+03   0.27548E+04   0.00000E+00
       0.00      36859.52         0.74208E+03   0.30921E+03   0.27827E+04   0.00000E+00
       0.00      36899.85         0.74965E+03   0.31236E+03   0.28111E+04   0.00000E+00
       0.00      36940.17         0.75735E+03   0.31557E+03   0.28400E+04   0.00000E+00
       0.00      36980.50         0.76519E+03   0.31884E+03   0.28694E+04   0.00000E+00
       0.00      37020.83         0.77317E+03   0.32217E+03   0.28993E+04   0.00000E+00
       0.00      37061.16         0.78129E+03   0.32555E+03   0.29298E+04   0.00000E+00
       0.00      37101.48         0.78956E+03   0.32900E+03   0.29608E+04   0.00000E+00
       0.00      37141.81         0.79799E+03   0.33251E+03   0.29924E+04   0.00000E+00
       0.00      37182.14         0.80656E+03   0.33608E+03   0.30245E+04   0.00000E+00
       0.00      37222.47         0.81530E+03   0.33972E+03   0.30573E+04   0.00000E+00
       0.00      37262.79         0.82420E+03   0.34343E+03   0.30906E+04   0.00000E+00
       0.00      37303.12         0.83326E+03   0.34721E+03   0.31246E+04   0.00000E+00
       0.00      37343.45         0.84250E+03   0.35105E+03   0.31593E+04   0.00000E+00
       0.00      37383.78         0.85191E+03   0.35498E+03   0.31946E+04   0.00000E+00
       0.00      37424.11         0.86151E+03   0.35897E+03   0.32306E+04   0.00000E+00
       0.00      37464.43         0.87129E+03   0.36305E+03   0.32672E+04   0.00000E+00
       0.00      37504.76         0.88125E+03   0.36720E+03   0.33046E+04   0.00000E+00
       0.00      37545.09         0.89142E+03   0.37144E+03   0.33427E+04   0.00000E+00
       0.00      37585.42         0.90179E+03   0.37576E+03   0.33816E+04   0.00000E+00
       0.00      37625.74         0.91236E+03   0.38017E+03   0.34213E+04   0.00000E+00
       0.00      37666.07         0.92315E+03   0.38466E+03   0.34617E+04   0.00000E+00
       0.00      37706.40         0.93416E+03   0.38925E+03   0.35030E+04   0.00000E+00
       0.00      37746.73         0.94539E+03   0.39393E+03   0.35451E+04   0.00000E+00
       0.00      37787.05         0.95686E+03   0.39871E+03   0.35881E+04   0.00000E+00
       0.00      37827.38         0.96856E+03   0.40358E+03   0.36320E+04   0.00000E+00
       0.00      37867.71         0.98051E+03   0.40856E+03   0.36768E+04   0.00000E+00
       0.00      37908.04         0.99271E+03   0.41365E+03   0.37226E+04   0.00000E+00
       0.00      37948.37         0.10052E+04   0.41884E+03   0.37693E+04   0.00000E+00
       0.00      37988.69         0.10179E+04   0.42414E+03   0.38170E+04   0.00000E+00
       0.00      38029.02         0.10309E+04   0.42956E+03   0.38658E+04   0.00000E+00
       0.00      38069.35         0.10442E+04   0.43510E+03   0.39156E+04   0.00000E+00
       0.00      38109.68         0.10578E+04   0.44076E+03   0.39666E+04   0.00000E+00
       0.00      38150.00         0.10717E+04   0.44655E+03   0.40187E+04   0.00000E+00
       0.00      38190.33         0.10859E+04   0.45247E+03   0.40719E+04   0.00000E+00
       0.00      38230.66         0.11004E+04   0.45852E+03   0.41264E+04   0.00000E+00
       0.00      38270.99         0.11153E+04   0.46472E+03   0.41821E+04   0.00000E+00
       0.00      38311.32         0.11305E+04   0.47105E+03   0.42391E+04   0.00000E+00
       0.00      38351.64         0.11460E+04   0.47754E+03   0.42975E+04   0.00000E+00
       0.00      38391.97         0.11620E+04   0.48417E+03   0.43572E+04   0.00000E+00
       0.00      38432.30         0.11783E+04   0.49097E+03   0.44184E+04   0.00000E+00
       0.00      38472.63         0.11950E+04   0.49793E+03   0.44810E+04   0.00000E+00
       0.00      38512.95         0.12121E+04   0.50506E+03   0.45452E+04   0.00000E+00
       0.00      38553.28         0.12296E+04   0.51236E+03   0.46109E+04   0.00000E+00
       0.00      38593.61         0.12476E+04   0.51985E+03   0.46783E+04   0.00000E+00
       0.00      38633.94         0.12660E+04   0.52753E+03   0.47473E+04   0.00000E+00
       0.00      38674.26         0.12849E+04   0.53540E+03   0.48182E+04   0.00000E+00
       0.00      38714.59         0.13043E+04   0.54347E+03   0.48908E+04   0.00000E+00
       0.00      38754.92         0.13241E+04   0.55175E+03   0.49654E+04   0.00000E+00
       0.00      38795.25         0.13445E+04   0.56025E+03   0.50418E+04   0.00000E+00
       0.00      38835.58         0.13655E+04   0.56898E+03   0.51204E+04   0.00000E+00
       0.00      38875.90         0.13870E+04   0.57794E+03   0.52010E+04   0.00000E+00
       0.00      38916.23         0.14091E+04   0.58715E+03   0.52838E+04   0.00000E+00
       0.00      38956.56         0.14318E+04   0.59660E+03   0.53690E+04   0.00000E+00
       0.00      38996.89         0.14551E+04   0.60633E+03   0.54565E+04   0.00000E+00
       0.00      39037.21         0.14791E+04   0.61632E+03   0.55464E+04   0.00000E+00
       0.00      39077.54         0.15038E+04   0.62661E+03   0.56389E+04   0.00000E+00
       0.00      39117.87         0.15292E+04   0.63719E+03   0.57341E+04   0.00000E+00
       0.00      39158.20         0.15553E+04   0.64808E+03   0.58321E+04   0.00000E+00
       0.00      39198.52         0.15822E+04   0.65929E+03   0.59330E+04   0.00000E+00
       0.00      39238.85         0.16099E+04   0.67084E+03   0.60370E+04   0.00000E+00
       0.00      39279.18         0.16385E+04   0.68274E+03   0.61441E+04   0.00000E+00
       0.00      39319.51         0.16679E+04   0.69501E+03   0.62545E+04   0.00000E+00
       0.00      39359.84         0.16983E+04   0.70767E+03   0.63684E+04   0.00000E+00
       0.00      39400.16         0.17296E+04   0.72072E+03   0.64859E+04   0.00000E+00
       0.00      39440.49         0.17620E+04   0.73420E+03   0.66072E+04   0.00000E+00
       0.00      39480.82         0.17954E+04   0.74812E+03   0.67325E+04   0.00000E+00
       0.00      39521.15         0.18299E+04   0.76250E+03   0.68619E+04   0.00000E+00
       0.00      39561.47         0.18656E+04   0.77736E+03   0.69957E+04   0.00000E+00
       0.00      39601.80         0.19025E+04   0.79273E+03   0.71341E+04   0.00000E+00
       0.00      39642.13         0.19407E+04   0.80864E+03   0.72773E+04   0.00000E+00
       0.00      39682.46         0.19802E+04   0.82511E+03   0.74255E+04   0.00000E+00
       0.00      39722.78         0.20211E+04   0.84217E+03   0.75791E+04   0.00000E+00
       0.00      39763.11         0.20636E+04   0.85985E+03   0.77383E+04   0.00000E+00
       0.00      39803.44         0.21076E+04   0.87819E+03   0.79034E+04   0.00000E+00
       0.00      39843.77         0.21533E+04   0.89722E+03   0.80747E+04   0.00000E+00
       0.00      39884.10         0.22007E+04   0.91699E+03   0.82526E+04   0.00000E+00
       0.00      39924.42         0.22500E+04   0.93753E+03   0.84375E+04   0.00000E+00
       0.00      39964.75         0.23013E+04   0.95888E+03   0.86297E+04   0.00000E+00
       0.00      40005.08         0.23546E+04   0.98111E+03   0.88297E+04   0.00000E+00
       0.00      40045.41         0.24102E+04   0.10043E+04   0.90380E+04   0.00000E+00
       0.00      40085.73         0.24680E+04   0.10284E+04   0.92551E+04   0.00000E+00
       0.00      40126.06         0.25284E+04   0.10535E+04   0.94814E+04   0.00000E+00
       0.00      40166.39         0.25914E+04   0.10798E+04   0.97177E+04   0.00000E+00
       0.00      40206.72         0.26572E+04   0.11072E+04   0.99646E+04   0.00000E+00
       0.00      40247.04         0.27261E+04   0.11359E+04   0.10223E+05   0.00000E+00
       0.00      40287.37         0.27981E+04   0.11659E+04   0.10493E+05   0.00000E+00
       0.00      40327.70         0.28735E+04   0.11973E+04   0.10776E+05   0.00000E+00
       0.00      40368.03         0.29526E+04   0.12303E+04   0.11072E+05   0.00000E+00
       0.00      40408.36         0.30357E+04   0.12649E+04   0.11384E+05   0.00000E+00
       0.00      40448.68         0.31229E+04   0.13012E+04   0.11711E+05   0.00000E+00
       0.00      40489.01         0.32146E+04   0.13395E+04   0.12055E+05   0.00000E+00
       0.00      40529.34         0.33112E+04   0.13797E+04   0.12417E+05   0.00000E+00
       0.00      40569.67         0.34130E+04   0.14221E+04   0.12799E+05   0.00000E+00
       0.00      40609.99         0.35204E+04   0.14669E+04   0.13201E+05   0.00000E+00
       0.00      40650.32         0.36339E+04   0.15141E+04   0.13627E+05   0.00000E+00
       0.00      40690.65         0.37538E+04   0.15641E+04   0.14077E+05   0.00000E+00
       0.00      40730.98         0.38808E+04   0.16170E+04   0.14553E+05   0.00000E+00
       0.00      40771.30         0.40153E+04   0.16731E+04   0.15057E+05   0.00000E+00
       0.00      40811.63         0.41580E+04   0.17325E+04   0.15592E+05   0.00000E+00
       0.00      40851.96         0.43093E+04   0.17956E+04   0.16160E+05   0.00000E+00
       0.00      40892.29         0.44701E+04   0.18626E+04   0.16763E+05   0.00000E+00
       0.00      40932.62         0.46409E+04   0.19338E+04   0.17403E+05   0.00000E+00
       0.00      40972.94         0.48224E+04   0.20094E+04   0.18084E+05   0.00000E+00
       0.00      41013.27         0.50150E+04   0.20896E+04   0.18806E+05   0.00000E+00
       0.00      41053.60         0.52194E+04   0.21748E+04   0.19572E+05   0.00000E+00
       0.00      41093.93         0.54357E+04   0.22649E+04   0.20383E+05   0.00000E+00
       0.00      41134.25         0.56639E+04   0.23600E+04   0.21239E+05   0.00000E+00
       0.00      41174.58         0.59036E+04   0.24599E+04   0.22138E+05   0.00000E+00
       0.00      41214.91         0.61535E+04   0.25640E+04   0.23075E+05   0.00000E+00
       0.00      41255.24         0.64116E+04   0.26716E+04   0.24043E+05   0.00000E+00
       0.00      41295.56         0.66741E+04   0.27810E+04   0.25027E+05   0.00000E+00
       0.00      41335.89         0.69359E+04   0.28901E+04   0.26009E+05   0.00000E+00
       0.00      41376.22         0.71895E+04   0.29957E+04   0.26960E+05   0.00000E+00
       0.00      41416.55         0.74247E+04   0.30937E+04   0.27842E+05   0.00000E+00
       0.00      41456.88         0.76290E+04   0.31789E+04   0.28608E+05   0.00000E+00
       0.00      41497.20         0.77881E+04   0.32452E+04   0.29205E+05   0.00000E+00
       0.00      41537.53         0.78871E+04   0.32864E+04   0.29576E+05   0.00000E+00
       0.00      41577.86         0.79136E+04   0.32974E+04   0.29675E+05   0.00000E+00
       0.00      41618.19         0.78605E+04   0.32753E+04   0.29476E+05   0.00000E+00
       0.00      41658.51         0.77296E+04   0.32208E+04   0.28985E+05   0.00000E+00
       0.00      41698.84         0.75329E+04   0.31388E+04   0.28248E+05   0.00000E+00
       0.00      41739.17         0.72915E+04   0.30382E+04   0.27342E+05   0.00000E+00
       0.00      41779.50         0.70324E+04   0.29303E+04   0.26371E+05   0.00000E+00
       0.00      41819.82         0.67831E+04   0.28264E+04   0.25436E+05   0.00000E+00
       0.00      41860.15         0.65666E+04   0.27362E+04   0.24624E+05   0.00000E+00
       0.00      41900.48         0.63985E+04   0.26662E+04   0.23994E+05   0.00000E+00
       0.00      41940.81         0.62856E+04   0.26191E+04   0.23570E+05   0.00000E+00
       0.00      41981.14         0.62272E+04   0.25948E+04   0.23352E+05   0.00000E+00
       0.00      42021.46         0.62165E+04   0.25903E+04   0.23311E+05   0.00000E+00
       0.00      42061.79         0.62427E+04   0.26012E+04   0.23410E+05   0.00000E+00
       0.00      42102.12         0.62933E+04   0.26223E+04   0.23599E+05   0.00000E+00
       0.00      42142.45         0.63555E+04   0.26482E+04   0.23833E+05   0.00000E+00
       0.00      42182.77         0.64184E+04   0.26744E+04   0.24069E+05   0.00000E+00
       0.00      42223.10         0.64736E+04   0.26974E+04   0.24276E+05   0.00000E+00
       0.00      42263.43         0.65157E+04   0.27149E+04   0.24434E+05   0.00000E+00
       0.00      42303.76         0.65428E+04   0.27262E+04   0.24535E+05   0.00000E+00
       0.00      42344.09         0.65554E+04   0.27314E+04   0.24582E+05   0.00000E+00
       0.00      42384.41         0.65567E+04   0.27320E+04   0.24587E+05   0.00000E+00
       0.00      42424.74         0.65513E+04   0.27298E+04   0.24567E+05   0.00000E+00
       0.00      42465.07         0.65449E+04   0.27271E+04   0.24543E+05   0.00000E+00
       0.00      42505.40         0.65426E+04   0.27261E+04   0.24535E+05   0.00000E+00
       0.00      42545.72         0.65490E+04   0.27288E+04   0.24559E+05   0.00000E+00
       0.00      42586.05         0.65672E+04   0.27364E+04   0.24627E+05   0.00000E+00
       0.00      42626.38         0.65994E+04   0.27498E+04   0.24747E+05   0.00000E+00
       0.00      42666.71         0.66470E+04   0.27696E+04   0.24926E+05   0.00000E+00
       0.00      42707.03         0.67116E+04   0.27965E+04   0.25168E+05   0.00000E+00
       0.00      42747.36         0.67952E+04   0.28314E+04   0.25482E+05   0.00000E+00
       0.00      42787.69         0.68998E+04   0.28749E+04   0.25874E+05   0.00000E+00
       0.00      42828.02         0.70267E+04   0.29278E+04   0.26350E+05   0.00000E+00
       0.00      42868.35         0.71768E+04   0.29904E+04   0.26913E+05   0.00000E+00
       0.00      42908.67         0.73492E+04   0.30622E+04   0.27559E+05   0.00000E+00
       0.00      42949.00         0.75421E+04   0.31426E+04   0.28282E+05   0.00000E+00
       0.00      42989.33         0.77521E+04   0.32301E+04   0.29070E+05   0.00000E+00
       0.00      43029.66         0.79745E+04   0.33227E+04   0.29904E+05   0.00000E+00
       0.00      43069.98         0.82038E+04   0.34183E+04   0.30764E+05   0.00000E+00
       0.00      43110.31         0.84329E+04   0.35137E+04   0.31623E+05   0.00000E+00
       0.00      43150.64         0.86541E+04   0.36059E+04   0.32452E+05   0.00000E+00
       0.00      43190.97         0.88599E+04   0.36917E+04   0.33224E+05   0.00000E+00
       0.00      43231.29         0.90436E+04   0.37682E+04   0.33913E+05   0.00000E+00
       0.00      43271.62         0.91999E+04   0.38333E+04   0.34499E+05   0.00000E+00
       0.00      43311.95         0.93257E+04   0.38858E+04   0.34971E+05   0.00000E+00
       0.00      43352.28         0.94201E+04   0.39251E+04   0.35325E+05   0.00000E+00
       0.00      43392.61         0.94851E+04   0.39522E+04   0.35569E+05   0.00000E+00
       0.00      43432.93         0.95263E+04   0.39694E+04   0.35723E+05   0.00000E+00
       0.00      43473.26         0.95523E+04   0.39802E+04   0.35821E+05   0.00000E+00
       0.00      43513.59         0.95741E+04   0.39893E+04   0.35902E+05   0.00000E+00
       0.00      43553.92         0.96028E+04   0.40013E+04   0.36010E+05   0.00000E+00
       0.00      43594.24         0.96474E+04   0.40198E+04   0.36177E+05   0.00000E+00
       0.00      43634.57         0.97118E+04   0.40467E+04   0.36419E+05   0.00000E+00
       0.00      43674.90         0.97938E+04   0.40808E+04   0.36726E+05   0.00000E+00
       0.00      43715.23         0.98850E+04   0.41188E+04   0.37068E+05   0.00000E+00
       0.00      43755.55         0.99716E+04   0.41549E+04   0.37393E+05   0.00000E+00
       0.00      43795.88         0.10037E+05   0.41821E+04   0.37637E+05   0.00000E+00
       0.00      43836.21         0.10064E+05   0.41936E+04   0.37741E+05   0.00000E+00
       0.00      43876.54         0.10042E+05   0.41843E+04   0.37657E+05   0.00000E+00
       0.00      43916.87         0.99646E+04   0.41520E+04   0.37366E+05   0.00000E+00
       0.00      43957.19         0.98348E+04   0.40980E+04   0.36880E+05   0.00000E+00
       0.00      43997.52         0.96630E+04   0.40264E+04   0.36235E+05   0.00000E+00
       0.00      44037.85         0.94640E+04   0.39435E+04   0.35489E+05   0.00000E+00
       0.00      44078.18         0.92542E+04   0.38560E+04   0.34702E+05   0.00000E+00
       0.00      44118.50         0.90488E+04   0.37704E+04   0.33932E+05   0.00000E+00
       0.00      44158.83         0.88596E+04   0.36916E+04   0.33223E+05   0.00000E+00
       0.00      44199.16         0.86942E+04   0.36227E+04   0.32603E+05   0.00000E+00
       0.00      44239.49         0.85565E+04   0.35653E+04   0.32086E+05   0.00000E+00
       0.00      44279.81         0.84464E+04   0.35194E+04   0.31673E+05   0.00000E+00
       0.00      44320.14         0.83610E+04   0.34839E+04   0.31353E+05   0.00000E+00
       0.00      44360.47         0.82955E+04   0.34565E+04   0.31108E+05   0.00000E+00
       0.00      44400.80         0.82441E+04   0.34351E+04   0.30915E+05   0.00000E+00
       0.00      44441.13         0.82011E+04   0.34172E+04   0.30754E+05   0.00000E+00
       0.00      44481.45         0.81621E+04   0.34010E+04   0.30607E+05   0.00000E+00
       0.00      44521.78         0.81240E+04   0.33851E+04   0.30465E+05   0.00000E+00
       0.00      44562.11         0.80856E+04   0.33691E+04   0.30321E+05   0.00000E+00
       0.00      44602.44         0.80469E+04   0.33529E+04   0.30175E+05   0.00000E+00
       0.00      44642.76         0.80089E+04   0.33371E+04   0.30033E+05   0.00000E+00
       0.00      44683.09         0.79733E+04   0.33223E+04   0.29900E+05   0.00000E+00
       0.00      44723.42         0.79416E+04   0.33091E+04   0.29781E+05   0.00000E+00
       0.00      44763.75         0.79146E+04   0.32978E+04   0.29679E+05   0.00000E+00
       0.00      44804.07         0.78926E+04   0.32886E+04   0.29597E+05   0.00000E+00
       0.00      44844.40         0.78751E+04   0.32813E+04   0.29531E+05   0.00000E+00
       0.00      44884.73         0.78610E+04   0.32755E+04   0.29478E+05   0.00000E+00
       0.00      44925.06         0.78494E+04   0.32706E+04   0.29435E+05   0.00000E+00
       0.00      44965.39         0.78397E+04   0.32666E+04   0.29398E+05   0.00000E+00
       0.00      45005.71         0.78319E+04   0.32633E+04   0.29369E+05   0.00000E+00
       0.00      45046.04         0.78269E+04   0.32612E+04   0.29351E+05   0.00000E+00
       0.00      45086.37         0.78256E+04   0.32607E+04   0.29346E+05   0.00000E+00
       0.00      45126.70         0.78295E+04   0.32624E+04   0.29360E+05   0.00000E+00
       0.00      45167.02         0.78396E+04   0.32666E+04   0.29398E+05   0.00000E+00
       0.00      45207.35         0.78571E+04   0.32738E+04   0.29464E+05   0.00000E+00
       0.00      45247.68         0.78826E+04   0.32845E+04   0.29560E+05   0.00000E+00
       0.00      45288.01         0.79162E+04   0.32985E+04   0.29686E+05   0.00000E+00
       0.00      45328.33         0.79571E+04   0.33155E+04   0.29839E+05   0.00000E+00
       0.00      45368.66         0.80031E+04   0.33346E+04   0.30011E+05   0.00000E+00
       0.00      45408.99         0.80510E+04   0.33546E+04   0.30191E+05   0.00000E+00
       0.00      45449.32         0.80967E+04   0.33737E+04   0.30362E+05   0.00000E+00
       0.00      45489.65         0.81356E+04   0.33899E+04   0.30508E+05   0.00000E+00
       0.00      45529.97         0.81630E+04   0.34013E+04   0.30611E+05   0.00000E+00
       0.00      45570.30         0.81748E+04   0.34062E+04   0.30655E+05   0.00000E+00
       0.00      45610.63         0.81681E+04   0.34034E+04   0.30630E+05   0.00000E+00
       0.00      45650.96         0.81419E+04   0.33925E+04   0.30532E+05   0.00000E+00
       0.00      45691.28         0.80977E+04   0.33741E+04   0.30366E+05   0.00000E+00
       0.00      45731.61         0.80393E+04   0.33498E+04   0.30147E+05   0.00000E+00
       0.00      45771.94         0.79724E+04   0.33219E+04   0.29896E+05   0.00000E+00
       0.00      45812.27         0.79032E+04   0.32931E+04   0.29637E+05   0.00000E+00
       0.00      45852.59         0.78373E+04   0.32656E+04   0.29390E+05   0.00000E+00
       0.00      45892.92         0.77785E+04   0.32411E+04   0.29169E+05   0.00000E+00
       0.00      45933.25         0.77283E+04   0.32202E+04   0.28981E+05   0.00000E+00
       0.00      45973.58         0.76853E+04   0.32023E+04   0.28820E+05   0.00000E+00
       0.00      46013.91         0.76462E+04   0.31860E+04   0.28673E+05   0.00000E+00
       0.00      46054.23         0.76063E+04   0.31694E+04   0.28523E+05   0.00000E+00
       0.00      46094.56         0.75606E+04   0.31503E+04   0.28352E+05   0.00000E+00
       0.00      46134.89         0.75051E+04   0.31272E+04   0.28144E+05   0.00000E+00
       0.00      46175.22         0.74376E+04   0.30991E+04   0.27891E+05   0.00000E+00
       0.00      46215.54         0.73579E+04   0.30658E+04   0.27592E+05   0.00000E+00
       0.00      46255.87         0.72674E+04   0.30282E+04   0.27252E+05   0.00000E+00
       0.00      46296.20         0.71694E+04   0.29873E+04   0.26885E+05   0.00000E+00
       0.00      46336.53         0.70671E+04   0.29447E+04   0.26501E+05   0.00000E+00
       0.00      46376.86         0.69642E+04   0.29018E+04   0.26115E+05   0.00000E+00
       0.00      46417.18         0.68636E+04   0.28599E+04   0.25738E+05   0.00000E+00
       0.00      46457.51         0.67677E+04   0.28200E+04   0.25378E+05   0.00000E+00
       0.00      46497.84         0.66777E+04   0.27824E+04   0.25041E+05   0.00000E+00
       0.00      46538.17         0.65941E+04   0.27476E+04   0.24727E+05   0.00000E+00
       0.00      46578.49         0.65167E+04   0.27154E+04   0.24437E+05   0.00000E+00
       0.00      46618.82         0.64444E+04   0.26852E+04   0.24166E+05   0.00000E+00
       0.00      46659.15         0.63760E+04   0.26567E+04   0.23910E+05   0.00000E+00
       0.00      46699.48         0.63106E+04   0.26295E+04   0.23664E+05   0.00000E+00
       0.00      46739.80         0.62470E+04   0.26030E+04   0.23426E+05   0.00000E+00
       0.00      46780.13         0.61850E+04   0.25771E+04   0.23193E+05   0.00000E+00
       0.00      46820.46         0.61243E+04   0.25519E+04   0.22966E+05   0.00000E+00
       0.00      46860.79         0.60653E+04   0.25273E+04   0.22745E+05   0.00000E+00
       0.00      46901.12         0.60085E+04   0.25036E+04   0.22532E+05   0.00000E+00
       0.00      46941.44         0.59541E+04   0.24809E+04   0.22328E+05   0.00000E+00
       0.00      46981.77         0.59025E+04   0.24594E+04   0.22134E+05   0.00000E+00
       0.00      47022.10         0.58536E+04   0.24391E+04   0.21951E+05   0.00000E+00
       0.00      47062.43         0.58074E+04   0.24198E+04   0.21778E+05   0.00000E+00
       0.00      47102.75         0.57633E+04   0.24014E+04   0.21612E+05   0.00000E+00
       0.00      47143.08         0.57205E+04   0.23836E+04   0.21452E+05   0.00000E+00
       0.00      47183.41         0.56784E+04   0.23660E+04   0.21294E+05   0.00000E+00
       0.00      47223.74         0.56363E+04   0.23485E+04   0.21136E+05   0.00000E+00
       0.00      47264.06         0.55938E+04   0.23308E+04   0.20977E+05   0.00000E+00
       0.00      47304.39         0.55508E+04   0.23129E+04   0.20815E+05   0.00000E+00
       0.00      47344.72         0.55071E+04   0.22947E+04   0.20651E+05   0.00000E+00
       0.00      47385.05         0.54629E+04   0.22763E+04   0.20486E+05   0.00000E+00
       0.00      47425.38         0.54187E+04   0.22578E+04   0.20320E+05   0.00000E+00
       0.00      47465.70         0.53749E+04   0.22396E+04   0.20156E+05   0.00000E+00
       0.00      47506.03         0.53323E+04   0.22218E+04   0.19996E+05   0.00000E+00
       0.00      47546.36         0.52914E+04   0.22048E+04   0.19843E+05   0.00000E+00
       0.00      47586.69         0.52526E+04   0.21886E+04   0.19697E+05   0.00000E+00
       0.00      47627.01         0.52158E+04   0.21733E+04   0.19559E+05   0.00000E+00
       0.00      47667.34         0.51807E+04   0.21586E+04   0.19427E+05   0.00000E+00
       0.00      47707.67         0.51463E+04   0.21443E+04   0.19298E+05   0.00000E+00
       0.00      47748.00         0.51117E+04   0.21299E+04   0.19169E+05   0.00000E+00
       0.00      47788.32         0.50755E+04   0.21148E+04   0.19033E+05   0.00000E+00
       0.00      47828.65         0.50365E+04   0.20986E+04   0.18887E+05   0.00000E+00
       0.00      47868.98         0.49939E+04   0.20808E+04   0.18727E+05   0.00000E+00
       0.00      47909.31         0.49471E+04   0.20613E+04   0.18552E+05   0.00000E+00
       0.00      47949.64         0.48964E+04   0.20402E+04   0.18361E+05   0.00000E+00
       0.00      47989.96         0.48426E+04   0.20178E+04   0.18160E+05   0.00000E+00
       0.00      48030.29         0.47868E+04   0.19945E+04   0.17950E+05   0.00000E+00
       0.00      48070.62         0.47303E+04   0.19710E+04   0.17738E+05   0.00000E+00
       0.00      48110.95         0.46743E+04   0.19477E+04   0.17529E+05   0.00000E+00
       0.00      48151.27         0.46197E+04   0.19249E+04   0.17324E+05   0.00000E+00
       0.00      48191.60         0.45670E+04   0.19029E+04   0.17126E+05   0.00000E+00
       0.00      48231.93         0.45159E+04   0.18817E+04   0.16934E+05   0.00000E+00
       0.00      48272.26         0.44661E+04   0.18609E+04   0.16748E+05   0.00000E+00
       0.00      48312.58         0.44170E+04   0.18404E+04   0.16563E+05   0.00000E+00
       0.00      48352.91         0.43677E+04   0.18199E+04   0.16379E+05   0.00000E+00
       0.00      48393.24         0.43178E+04   0.17991E+04   0.16191E+05   0.00000E+00
       0.00      48433.57         0.42668E+04   0.17779E+04   0.16000E+05   0.00000E+00
       0.00      48473.90         0.42147E+04   0.17562E+04   0.15805E+05   0.00000E+00
       0.00      48514.22         0.41617E+04   0.17341E+04   0.15606E+05   0.00000E+00
       0.00      48554.55         0.41082E+04   0.17118E+04   0.15406E+05   0.00000E+00
       0.00      48594.88         0.40546E+04   0.16895E+04   0.15205E+05   0.00000E+00
       0.00      48635.21         0.40015E+04   0.16673E+04   0.15005E+05   0.00000E+00
       0.00      48675.53         0.39492E+04   0.16455E+04   0.14809E+05   0.00000E+00
       0.00      48715.86         0.38981E+04   0.16242E+04   0.14618E+05   0.00000E+00
       0.00      48756.19         0.38483E+04   0.16035E+04   0.14431E+05   0.00000E+00
       0.00      48796.52         0.38000E+04   0.15834E+04   0.14250E+05   0.00000E+00
       0.00      48836.84         0.37530E+04   0.15638E+04   0.14073E+05   0.00000E+00
       0.00      48877.17         0.37071E+04   0.15447E+04   0.13901E+05   0.00000E+00
       0.00      48917.50         0.36622E+04   0.15260E+04   0.13733E+05   0.00000E+00
       0.00      48957.83         0.36181E+04   0.15076E+04   0.13568E+05   0.00000E+00
       0.00      48998.16         0.35746E+04   0.14894E+04   0.13404E+05   0.00000E+00
       0.00      49038.48         0.35317E+04   0.14716E+04   0.13244E+05   0.00000E+00
       0.00      49078.81         0.34895E+04   0.14540E+04   0.13085E+05   0.00000E+00
       0.00      49119.14         0.34479E+04   0.14367E+04   0.12930E+05   0.00000E+00
       0.00      49159.47         0.34072E+04   0.14197E+04   0.12777E+05   0.00000E+00
       0.00      49199.79         0.33673E+04   0.14031E+04   0.12627E+05   0.00000E+00
       0.00      49240.12         0.33284E+04   0.13869E+04   0.12481E+05   0.00000E+00
       0.00      49280.45         0.32904E+04   0.13710E+04   0.12339E+05   0.00000E+00
       0.00      49320.78         0.32532E+04   0.13555E+04   0.12199E+05   0.00000E+00
       0.00      49361.10         0.32169E+04   0.13404E+04   0.12063E+05   0.00000E+00
       0.00      49401.43         0.31812E+04   0.13255E+04   0.11929E+05   0.00000E+00
       0.00      49441.76         0.31460E+04   0.13109E+04   0.11797E+05   0.00000E+00
       0.00      49482.09         0.31111E+04   0.12963E+04   0.11667E+05   0.00000E+00
       0.00      49522.42         0.30765E+04   0.12819E+04   0.11537E+05   0.00000E+00
       0.00      49562.74         0.30418E+04   0.12675E+04   0.11407E+05   0.00000E+00
       0.00      49603.07         0.30073E+04   0.12531E+04   0.11277E+05   0.00000E+00
       0.00      49643.40         0.29727E+04   0.12387E+04   0.11147E+05   0.00000E+00
       0.00      49683.73         0.29382E+04   0.12243E+04   0.11018E+05   0.00000E+00
       0.00      49724.05         0.29040E+04   0.12100E+04   0.10890E+05   0.00000E+00
       0.00      49764.38         0.28700E+04   0.11959E+04   0.10762E+05   0.00000E+00
       0.00      49804.71         0.28366E+04   0.11819E+04   0.10637E+05   0.00000E+00
       0.00      49845.04         0.28037E+04   0.11683E+04   0.10514E+05   0.00000E+00
       0.00      49885.36         0.27715E+04   0.11548E+04   0.10393E+05   0.00000E+00
       0.00      49925.69         0.27399E+04   0.11416E+04   0.10275E+05   0.00000E+00
       0.00      49966.02         0.27088E+04   0.11287E+04   0.10158E+05   0.00000E+00
       0.00      50006.35         0.26779E+04   0.11158E+04   0.10042E+05   0.00000E+00
       0.00      50046.68         0.26472E+04   0.11030E+04   0.99269E+04   0.00000E+00
       0.00      50087.00         0.26165E+04   0.10902E+04   0.98116E+04   0.00000E+00
       0.00      50127.33         0.25855E+04   0.10773E+04   0.96955E+04   0.00000E+00
       0.00      50167.66         0.25543E+04   0.10643E+04   0.95786E+04   0.00000E+00
       0.00      50207.99         0.25230E+04   0.10513E+04   0.94610E+04   0.00000E+00
       0.00      50248.31         0.24915E+04   0.10382E+04   0.93431E+04   0.00000E+00
       0.00      50288.64         0.24602E+04   0.10251E+04   0.92255E+04   0.00000E+00
       0.00      50328.97         0.24290E+04   0.10121E+04   0.91088E+04   0.00000E+00
       0.00      50369.30         0.23983E+04   0.99931E+03   0.89935E+04   0.00000E+00
       0.00      50409.62         0.23680E+04   0.98671E+03   0.88800E+04   0.00000E+00
       0.00      50449.95         0.23383E+04   0.97432E+03   0.87686E+04   0.00000E+00
       0.00      50490.28         0.23091E+04   0.96214E+03   0.86590E+04   0.00000E+00
       0.00      50530.61         0.22803E+04   0.95016E+03   0.85512E+04   0.00000E+00
       0.00      50570.94         0.22520E+04   0.93835E+03   0.84449E+04   0.00000E+00
       0.00      50611.26         0.22240E+04   0.92667E+03   0.83397E+04   0.00000E+00
       0.00      50651.59         0.21962E+04   0.91510E+03   0.82356E+04   0.00000E+00
       0.00      50691.92         0.21686E+04   0.90362E+03   0.81323E+04   0.00000E+00
       0.00      50732.25         0.21413E+04   0.89223E+03   0.80298E+04   0.00000E+00
       0.00      50772.57         0.21142E+04   0.88095E+03   0.79283E+04   0.00000E+00
       0.00      50812.90         0.20874E+04   0.86979E+03   0.78278E+04   0.00000E+00
       0.00      50853.23         0.20610E+04   0.85877E+03   0.77286E+04   0.00000E+00
       0.00      50893.56         0.20349E+04   0.84790E+03   0.76308E+04   0.00000E+00
       0.00      50933.89         0.20093E+04   0.83721E+03   0.75346E+04   0.00000E+00
       0.00      50974.21         0.19841E+04   0.82671E+03   0.74401E+04   0.00000E+00
       0.00      51014.54         0.19593E+04   0.81640E+03   0.73473E+04   0.00000E+00
       0.00      51054.87         0.19350E+04   0.80627E+03   0.72561E+04   0.00000E+00
       0.00      51095.20         0.19111E+04   0.79632E+03   0.71666E+04   0.00000E+00
       0.00      51135.52         0.18876E+04   0.78652E+03   0.70784E+04   0.00000E+00
       0.00      51175.85         0.18645E+04   0.77688E+03   0.69917E+04   0.00000E+00
       0.00      51216.18         0.18417E+04   0.76738E+03   0.69062E+04   0.00000E+00
       0.00      51256.51         0.18192E+04   0.75801E+03   0.68218E+04   0.00000E+00
       0.00      51296.83         0.17970E+04   0.74877E+03   0.67387E+04   0.00000E+00
       0.00      51337.16         0.17752E+04   0.73966E+03   0.66567E+04   0.00000E+00
       0.00      51377.49         0.17536E+04   0.73069E+03   0.65759E+04   0.00000E+00
       0.00      51417.82         0.17324E+04   0.72184E+03   0.64964E+04   0.00000E+00
       0.00      51458.15         0.17115E+04   0.71314E+03   0.64180E+04   0.00000E+00
       0.00      51498.47         0.16910E+04   0.70458E+03   0.63410E+04   0.00000E+00
       0.00      51538.80         0.16708E+04   0.69616E+03   0.62652E+04   0.00000E+00
       0.00      51579.13         0.16509E+04   0.68788E+03   0.61907E+04   0.00000E+00
       0.00      51619.46         0.16313E+04   0.67974E+03   0.61174E+04   0.00000E+00
       0.00      51659.78         0.16121E+04   0.67171E+03   0.60452E+04   0.00000E+00
       0.00      51700.11         0.15931E+04   0.66380E+03   0.59739E+04   0.00000E+00
       0.00      51740.44         0.15743E+04   0.65598E+03   0.59036E+04   0.00000E+00
       0.00      51780.77         0.15558E+04   0.64826E+03   0.58341E+04   0.00000E+00
       0.00      51821.09         0.15375E+04   0.64062E+03   0.57654E+04   0.00000E+00
       0.00      51861.42         0.15193E+04   0.63306E+03   0.56974E+04   0.00000E+00
       0.00      51901.75         0.15014E+04   0.62558E+03   0.56300E+04   0.00000E+00
       0.00      51942.08         0.14836E+04   0.61818E+03   0.55634E+04   0.00000E+00
       0.00      51982.41         0.14661E+04   0.61087E+03   0.54976E+04   0.00000E+00
       0.00      52022.73         0.14487E+04   0.60365E+03   0.54327E+04   0.00000E+00
       0.00      52063.06         0.14317E+04   0.59654E+03   0.53686E+04   0.00000E+00
       0.00      52103.39         0.14148E+04   0.58953E+03   0.53056E+04   0.00000E+00
       0.00      52143.72         0.13983E+04   0.58263E+03   0.52435E+04   0.00000E+00
       0.00      52184.04         0.13820E+04   0.57583E+03   0.51823E+04   0.00000E+00
       0.00      52224.37         0.13659E+04   0.56913E+03   0.51220E+04   0.00000E+00
       0.00      52264.70         0.13500E+04   0.56252E+03   0.50625E+04   0.00000E+00
       0.00      52305.03         0.13344E+04   0.55599E+03   0.50038E+04   0.00000E+00
       0.00      52345.35         0.13189E+04   0.54953E+03   0.49456E+04   0.00000E+00
       0.00      52385.68         0.13035E+04   0.54314E+03   0.48881E+04   0.00000E+00
       0.00      52426.01         0.12883E+04   0.53682E+03   0.48312E+04   0.00000E+00
       0.00      52466.34         0.12733E+04   0.53056E+03   0.47749E+04   0.00000E+00
       0.00      52506.67         0.12585E+04   0.52438E+03   0.47192E+04   0.00000E+00
       0.00      52546.99         0.12438E+04   0.51828E+03   0.46643E+04   0.00000E+00
       0.00      52587.32         0.12294E+04   0.51226E+03   0.46101E+04   0.00000E+00
       0.00      52627.65         0.12152E+04   0.50633E+03   0.45568E+04   0.00000E+00
       0.00      52667.98         0.12011E+04   0.50049E+03   0.45042E+04   0.00000E+00
       0.00      52708.30         0.11873E+04   0.49473E+03   0.44524E+04   0.00000E+00
       0.00      52748.63         0.11737E+04   0.48907E+03   0.44015E+04   0.00000E+00
       0.00      52788.96         0.11604E+04   0.48349E+03   0.43513E+04   0.00000E+00
       0.00      52829.29         0.11472E+04   0.47800E+03   0.43018E+04   0.00000E+00
       0.00      52869.61         0.11342E+04   0.47258E+03   0.42530E+04   0.00000E+00
       0.00      52909.94         0.11213E+04   0.46724E+03   0.42050E+04   0.00000E+00
       0.00      52950.27         0.11087E+04   0.46197E+03   0.41575E+04   0.00000E+00
       0.00      52990.60         0.10962E+04   0.45677E+03   0.41108E+04   0.00000E+00
       0.00      53030.93         0.10839E+04   0.45165E+03   0.40647E+04   0.00000E+00
       0.00      53071.25         0.10718E+04   0.44660E+03   0.40192E+04   0.00000E+00
       0.00      53111.58         0.10599E+04   0.44162E+03   0.39744E+04   0.00000E+00
       0.00      53151.91         0.10481E+04   0.43672E+03   0.39303E+04   0.00000E+00
       0.00      53192.24         0.10365E+04   0.43190E+03   0.38869E+04   0.00000E+00
       0.00      53232.56         0.10251E+04   0.42715E+03   0.38442E+04   0.00000E+00
       0.00      53272.89         0.10139E+04   0.42247E+03   0.38021E+04   0.00000E+00
       0.00      53313.22         0.10029E+04   0.41787E+03   0.37607E+04   0.00000E+00
       0.00      53353.55         0.99198E+03   0.41334E+03   0.37199E+04   0.00000E+00
       0.00      53393.87         0.98126E+03   0.40887E+03   0.36797E+04   0.00000E+00
       0.00      53434.20         0.97070E+03   0.40447E+03   0.36401E+04   0.00000E+00
       0.00      53474.53         0.96030E+03   0.40013E+03   0.36011E+04   0.00000E+00
       0.00      53514.86         0.95004E+03   0.39586E+03   0.35626E+04   0.00000E+00
       0.00      53555.19         0.93992E+03   0.39164E+03   0.35247E+04   0.00000E+00
       0.00      53595.51         0.92996E+03   0.38749E+03   0.34873E+04   0.00000E+00
       0.00      53635.84         0.92013E+03   0.38340E+03   0.34504E+04   0.00000E+00
       0.00      53676.17         0.91045E+03   0.37936E+03   0.34141E+04   0.00000E+00
       0.00      53716.50         0.90091E+03   0.37539E+03   0.33784E+04   0.00000E+00
       0.00      53756.82         0.89151E+03   0.37147E+03   0.33431E+04   0.00000E+00
       0.00      53797.15         0.88225E+03   0.36761E+03   0.33084E+04   0.00000E+00
       0.00      53837.48         0.87313E+03   0.36381E+03   0.32742E+04   0.00000E+00
       0.00      53877.81         0.86415E+03   0.36007E+03   0.32405E+04   0.00000E+00
       0.00      53918.13         0.85529E+03   0.35638E+03   0.32073E+04   0.00000E+00
       0.00      53958.46         0.84656E+03   0.35274E+03   0.31745E+04   0.00000E+00
       0.00      53998.79         0.83794E+03   0.34915E+03   0.31422E+04   0.00000E+00
       0.00      54039.12         0.82945E+03   0.34561E+03   0.31104E+04   0.00000E+00
       0.00      54079.45         0.82107E+03   0.34212E+03   0.30790E+04   0.00000E+00
       0.00      54119.77         0.81280E+03   0.33867E+03   0.30479E+04   0.00000E+00
       0.00      54160.10         0.80464E+03   0.33527E+03   0.30174E+04   0.00000E+00
       0.00      54200.43         0.79659E+03   0.33192E+03   0.29872E+04   0.00000E+00
       0.00      54240.76         0.78866E+03   0.32861E+03   0.29574E+04   0.00000E+00
       0.00      54281.08         0.78083E+03   0.32536E+03   0.29281E+04   0.00000E+00
       0.00      54321.41         0.77312E+03   0.32214E+03   0.28992E+04   0.00000E+00
       0.00      54361.74         0.76552E+03   0.31897E+03   0.28707E+04   0.00000E+00
       0.00      54402.07         0.75803E+03   0.31585E+03   0.28426E+04   0.00000E+00
       0.00      54442.39         0.75065E+03   0.31278E+03   0.28149E+04   0.00000E+00
       0.00      54482.72         0.74337E+03   0.30974E+03   0.27876E+04   0.00000E+00
       0.00      54523.05         0.73619E+03   0.30675E+03   0.27607E+04   0.00000E+00
       0.00      54563.38         0.72911E+03   0.30380E+03   0.27341E+04   0.00000E+00
       0.00      54603.71         0.72212E+03   0.30089E+03   0.27079E+04   0.00000E+00
       0.00      54644.03         0.71523E+03   0.29802E+03   0.26821E+04   0.00000E+00
       0.00      54684.36         0.70844E+03   0.29519E+03   0.26566E+04   0.00000E+00
       0.00      54724.69         0.70173E+03   0.29240E+03   0.26315E+04   0.00000E+00
       0.00      54765.02         0.69512E+03   0.28964E+03   0.26067E+04   0.00000E+00
       0.00      54805.34         0.68860E+03   0.28692E+03   0.25822E+04   0.00000E+00
       0.00      54845.67         0.68218E+03   0.28425E+03   0.25581E+04   0.00000E+00
       0.00      54886.00         0.67584E+03   0.28161E+03   0.25344E+04   0.00000E+00
       0.00      54926.33         0.66960E+03   0.27901E+03   0.25110E+04   0.00000E+00
       0.00      54966.66         0.66344E+03   0.27644E+03   0.24879E+04   0.00000E+00
       0.00      55006.98         0.65738E+03   0.27391E+03   0.24651E+04   0.00000E+00
       0.00      55047.31         0.65140E+03   0.27142E+03   0.24427E+04   0.00000E+00
       0.00      55087.64         0.64550E+03   0.26896E+03   0.24206E+04   0.00000E+00
       0.00      55127.97         0.63968E+03   0.26654E+03   0.23988E+04   0.00000E+00
       0.00      55168.29         0.63395E+03   0.26415E+03   0.23773E+04   0.00000E+00
       0.00      55208.62         0.62829E+03   0.26179E+03   0.23561E+04   0.00000E+00
       0.00      55248.95         0.62271E+03   0.25947E+03   0.23351E+04   0.00000E+00
       0.00      55289.28         0.61721E+03   0.25718E+03   0.23145E+04   0.00000E+00
       0.00      55329.60         0.61179E+03   0.25492E+03   0.22942E+04   0.00000E+00
       0.00      55369.93         0.60644E+03   0.25269E+03   0.22741E+04   0.00000E+00
       0.00      55410.26         0.60117E+03   0.25049E+03   0.22543E+04   0.00000E+00
       0.00      55450.59         0.59597E+03   0.24833E+03   0.22348E+04   0.00000E+00
       0.00      55490.92         0.59084E+03   0.24619E+03   0.22156E+04   0.00000E+00
       0.00      55531.24         0.58578E+03   0.24408E+03   0.21966E+04   0.00000E+00
       0.00      55571.57         0.58080E+03   0.24200E+03   0.21779E+04   0.00000E+00
       0.00      55611.90         0.57588E+03   0.23996E+03   0.21595E+04   0.00000E+00
       0.00      55652.23         0.57103E+03   0.23793E+03   0.21413E+04   0.00000E+00
       0.00      55692.55         0.56624E+03   0.23594E+03   0.21234E+04   0.00000E+00
       0.00      55732.88         0.56152E+03   0.23397E+03   0.21057E+04   0.00000E+00
       0.00      55773.21         0.55686E+03   0.23203E+03   0.20882E+04   0.00000E+00
       0.00      55813.54         0.55227E+03   0.23012E+03   0.20710E+04   0.00000E+00
       0.00      55853.86         0.54773E+03   0.22823E+03   0.20540E+04   0.00000E+00
       0.00      55894.19         0.54326E+03   0.22636E+03   0.20372E+04   0.00000E+00
       0.00      55934.52         0.53885E+03   0.22453E+03   0.20206E+04   0.00000E+00
       0.00      55974.85         0.53449E+03   0.22271E+03   0.20043E+04   0.00000E+00
       0.00      56015.18         0.53020E+03   0.22092E+03   0.19882E+04   0.00000E+00
       0.00      56055.50         0.52596E+03   0.21916E+03   0.19723E+04   0.00000E+00
       0.00      56095.83         0.52178E+03   0.21741E+03   0.19566E+04   0.00000E+00
       0.00      56136.16         0.51765E+03   0.21569E+03   0.19412E+04   0.00000E+00
       0.00      56176.49         0.51358E+03   0.21400E+03   0.19259E+04   0.00000E+00
       0.00      56216.81         0.50956E+03   0.21232E+03   0.19108E+04   0.00000E+00
       0.00      56257.14         0.50560E+03   0.21067E+03   0.18960E+04   0.00000E+00
       0.00      56297.47         0.50168E+03   0.20904E+03   0.18813E+04   0.00000E+00
       0.00      56337.80         0.49782E+03   0.20743E+03   0.18668E+04   0.00000E+00
       0.00      56378.12         0.49400E+03   0.20584E+03   0.18525E+04   0.00000E+00
       0.00      56418.45         0.49024E+03   0.20427E+03   0.18384E+04   0.00000E+00
       0.00      56458.78         0.48652E+03   0.20272E+03   0.18244E+04   0.00000E+00
       0.00      56499.11         0.48285E+03   0.20119E+03   0.18107E+04   0.00000E+00
       0.00      56539.44         0.47923E+03   0.19968E+03   0.17971E+04   0.00000E+00
       0.00      56579.76         0.47565E+03   0.19819E+03   0.17837E+04   0.00000E+00
       0.00      56620.09         0.47213E+03   0.19672E+03   0.17704E+04   0.00000E+00
       0.00      56660.42         0.46864E+03   0.19527E+03   0.17574E+04   0.00000E+00
       0.00      56700.75         0.46521E+03   0.19384E+03   0.17445E+04   0.00000E+00
       0.00      56741.07         0.46181E+03   0.19243E+03   0.17318E+04   0.00000E+00
       0.00      56781.40         0.45846E+03   0.19103E+03   0.17192E+04   0.00000E+00
       0.00      56821.73         0.45515E+03   0.18965E+03   0.17068E+04   0.00000E+00
       0.00      56862.06         0.45188E+03   0.18829E+03   0.16945E+04   0.00000E+00
       0.00      56902.38         0.44866E+03   0.18695E+03   0.16824E+04   0.00000E+00
       0.00      56942.71         0.44547E+03   0.18562E+03   0.16705E+04   0.00000E+00
       0.00      56983.04         0.44232E+03   0.18431E+03   0.16587E+04   0.00000E+00
       0.00      57023.37         0.43922E+03   0.18301E+03   0.16470E+04   0.00000E+00
       0.00      57063.70         0.43615E+03   0.18173E+03   0.16355E+04   0.00000E+00
       0.00      57104.02         0.43312E+03   0.18047E+03   0.16242E+04   0.00000E+00
       0.00      57144.35         0.43013E+03   0.17923E+03   0.16130E+04   0.00000E+00
       0.00      57184.68         0.42718E+03   0.17800E+03   0.16019E+04   0.00000E+00
       0.00      57225.01         0.42426E+03   0.17678E+03   0.15910E+04   0.00000E+00
       0.00      57265.33         0.42138E+03   0.17558E+03   0.15801E+04   0.00000E+00
       0.00      57305.66         0.41853E+03   0.17439E+03   0.15695E+04   0.00000E+00
       0.00      57345.99         0.41572E+03   0.17322E+03   0.15589E+04   0.00000E+00
       0.00      57386.32         0.41295E+03   0.17207E+03   0.15485E+04   0.00000E+00
       0.00      57426.64         0.41021E+03   0.17092E+03   0.15382E+04   0.00000E+00
       0.00      57466.97         0.40750E+03   0.16979E+03   0.15281E+04   0.00000E+00
       0.00      57507.30         0.40482E+03   0.16868E+03   0.15180E+04   0.00000E+00
       0.00      57547.63         0.40218E+03   0.16758E+03   0.15081E+04   0.00000E+00
       0.00      57587.96         0.39957E+03   0.16649E+03   0.14983E+04   0.00000E+00
       0.00      57628.28         0.39699E+03   0.16541E+03   0.14887E+04   0.00000E+00
       0.00      57668.61         0.39444E+03   0.16435E+03   0.14791E+04   0.00000E+00
       0.00      57708.94         0.39192E+03   0.16330E+03   0.14697E+04   0.00000E+00
       0.00      57749.27         0.38943E+03   0.16227E+03   0.14603E+04   0.00000E+00
       0.00      57789.59         0.38697E+03   0.16124E+03   0.14511E+04   0.00000E+00
       0.00      57829.92         0.38454E+03   0.16023E+03   0.14420E+04   0.00000E+00
       0.00      57870.25         0.38214E+03   0.15923E+03   0.14330E+04   0.00000E+00
       0.00      57910.58         0.37977E+03   0.15824E+03   0.14241E+04   0.00000E+00
       0.00      57950.90         0.37742E+03   0.15726E+03   0.14153E+04   0.00000E+00
       0.00      57991.23         0.37511E+03   0.15630E+03   0.14066E+04   0.00000E+00
       0.00      58031.56         0.37282E+03   0.15534E+03   0.13980E+04   0.00000E+00
       0.00      58071.89         0.37055E+03   0.15440E+03   0.13896E+04   0.00000E+00
       0.00      58112.22         0.36832E+03   0.15347E+03   0.13812E+04   0.00000E+00
       0.00      58152.54         0.36610E+03   0.15255E+03   0.13729E+04   0.00000E+00
       0.00      58192.87         0.36392E+03   0.15164E+03   0.13647E+04   0.00000E+00
       0.00      58233.20         0.36176E+03   0.15074E+03   0.13566E+04   0.00000E+00
       0.00      58273.53         0.35962E+03   0.14985E+03   0.13486E+04   0.00000E+00
       0.00      58313.85         0.35751E+03   0.14897E+03   0.13406E+04   0.00000E+00
       0.00      58354.18         0.35542E+03   0.14810E+03   0.13328E+04   0.00000E+00
       0.00      58394.51         0.35336E+03   0.14724E+03   0.13251E+04   0.00000E+00
       0.00      58434.84         0.35132E+03   0.14639E+03   0.13174E+04   0.00000E+00
       0.00      58475.17         0.34930E+03   0.14555E+03   0.13099E+04   0.00000E+00
       0.00      58515.49         0.34731E+03   0.14472E+03   0.13024E+04   0.00000E+00
       0.00      58555.82         0.34534E+03   0.14389E+03   0.12950E+04   0.00000E+00
       0.00      58596.15         0.34339E+03   0.14308E+03   0.12877E+04   0.00000E+00
       0.00      58636.48         0.34146E+03   0.14228E+03   0.12805E+04   0.00000E+00
       0.00      58676.80         0.33955E+03   0.14148E+03   0.12733E+04   0.00000E+00
       0.00      58717.13         0.33767E+03   0.14070E+03   0.12662E+04   0.00000E+00
       0.00      58757.46         0.33580E+03   0.13992E+03   0.12592E+04   0.00000E+00
       0.00      58797.79         0.33396E+03   0.13915E+03   0.12523E+04   0.00000E+00
       0.00      58838.11         0.33214E+03   0.13839E+03   0.12455E+04   0.00000E+00
       0.00      58878.44         0.33033E+03   0.13764E+03   0.12387E+04   0.00000E+00
       0.00      58918.77         0.32855E+03   0.13690E+03   0.12320E+04   0.00000E+00
       0.00      58959.10         0.32678E+03   0.13616E+03   0.12254E+04   0.00000E+00
       0.00      58999.43         0.32504E+03   0.13544E+03   0.12189E+04   0.00000E+00
       0.00      59039.75         0.32331E+03   0.13472E+03   0.12124E+04   0.00000E+00
       0.00      59080.08         0.32161E+03   0.13401E+03   0.12060E+04   0.00000E+00
       0.00      59120.41         0.31992E+03   0.13330E+03   0.11997E+04   0.00000E+00
       0.00      59160.74         0.31825E+03   0.13261E+03   0.11934E+04   0.00000E+00
       0.00      59201.06         0.31659E+03   0.13192E+03   0.11872E+04   0.00000E+00
       0.00      59241.39         0.31496E+03   0.13124E+03   0.11811E+04   0.00000E+00
       0.00      59281.72         0.31334E+03   0.13056E+03   0.11750E+04   0.00000E+00
       0.00      59322.05         0.31174E+03   0.12989E+03   0.11690E+04   0.00000E+00
       0.00      59362.37         0.31016E+03   0.12924E+03   0.11631E+04   0.00000E+00
       0.00      59402.70         0.30859E+03   0.12858E+03   0.11572E+04   0.00000E+00
       0.00      59443.03         0.30704E+03   0.12794E+03   0.11514E+04   0.00000E+00
       0.00      59483.36         0.30551E+03   0.12730E+03   0.11456E+04   0.00000E+00
       0.00      59523.69         0.30399E+03   0.12667E+03   0.11399E+04   0.00000E+00
       0.00      59564.01         0.30249E+03   0.12604E+03   0.11343E+04   0.00000E+00
       0.00      59604.34         0.30100E+03   0.12542E+03   0.11287E+04   0.00000E+00
       0.00      59644.67         0.29953E+03   0.12481E+03   0.11232E+04   0.00000E+00
       0.00      59685.00         0.29808E+03   0.12420E+03   0.11178E+04   0.00000E+00
       0.00      59725.32         0.29664E+03   0.12360E+03   0.11124E+04   0.00000E+00
       0.00      59765.65         0.29521E+03   0.12301E+03   0.11070E+04   0.00000E+00
       0.00      59805.98         0.29380E+03   0.12242E+03   0.11017E+04   0.00000E+00
       0.00      59846.31         0.29241E+03   0.12184E+03   0.10965E+04   0.00000E+00
       0.00      59886.63         0.29102E+03   0.12126E+03   0.10913E+04   0.00000E+00
       0.00      59926.96         0.28966E+03   0.12069E+03   0.10862E+04   0.00000E+00
       0.00      59967.29         0.28830E+03   0.12013E+03   0.10811E+04   0.00000E+00
       0.00      60007.62         0.28696E+03   0.11957E+03   0.10761E+04   0.00000E+00
       0.00      60047.95         0.28564E+03   0.11902E+03   0.10711E+04   0.00000E+00
       0.00      60088.27         0.28433E+03   0.11847E+03   0.10662E+04   0.00000E+00
       0.00      60128.60         0.28303E+03   0.11793E+03   0.10613E+04   0.00000E+00
       0.00      60168.93         0.28174E+03   0.11739E+03   0.10565E+04   0.00000E+00
       0.00      60209.26         0.28047E+03   0.11686E+03   0.10517E+04   0.00000E+00
       0.00      60249.58         0.27920E+03   0.11634E+03   0.10470E+04   0.00000E+00
       0.00      60289.91         0.27796E+03   0.11582E+03   0.10423E+04   0.00000E+00
       0.00      60330.24         0.27672E+03   0.11530E+03   0.10377E+04   0.00000E+00
       0.00      60370.57         0.27550E+03   0.11479E+03   0.10331E+04   0.00000E+00
       0.00      60410.89         0.27429E+03   0.11429E+03   0.10286E+04   0.00000E+00
       0.00      60451.22         0.27309E+03   0.11379E+03   0.10241E+04   0.00000E+00
       0.00      60491.55         0.27190E+03   0.11329E+03   0.10196E+04   0.00000E+00
       0.00      60531.88         0.27072E+03   0.11280E+03   0.10152E+04   0.00000E+00
       0.00      60572.21         0.26956E+03   0.11232E+03   0.10108E+04   0.00000E+00
       0.00      60612.53         0.26841E+03   0.11184E+03   0.10065E+04   0.00000E+00
       0.00      60652.86         0.26727E+03   0.11136E+03   0.10022E+04   0.00000E+00
       0.00      60693.19         0.26614E+03   0.11089E+03   0.99799E+03   0.00000E+00
       0.00      60733.52         0.26502E+03   0.11043E+03   0.99380E+03   0.00000E+00
       0.00      60773.84         0.26391E+03   0.10996E+03   0.98964E+03   0.00000E+00
       0.00      60814.17         0.26281E+03   0.10951E+03   0.98552E+03   0.00000E+00
       0.00      60854.50         0.26172E+03   0.10905E+03   0.98145E+03   0.00000E+00
       0.00      60894.83         0.26065E+03   0.10861E+03   0.97741E+03   0.00000E+00
       0.00      60935.15         0.25958E+03   0.10816E+03   0.97341E+03   0.00000E+00
       0.00      60975.48         0.25852E+03   0.10772E+03   0.96945E+03   0.00000E+00
       0.00      61015.81         0.25748E+03   0.10729E+03   0.96553E+03   0.00000E+00
       0.00      61056.14         0.25644E+03   0.10685E+03   0.96164E+03   0.00000E+00
       0.00      61096.47         0.25542E+03   0.10643E+03   0.95780E+03   0.00000E+00
       0.00      61136.79         0.25440E+03   0.10600E+03   0.95398E+03   0.00000E+00
       0.00      61177.12         0.25339E+03   0.10558E+03   0.95021E+03   0.00000E+00
       0.00      61217.45         0.25240E+03   0.10517E+03   0.94647E+03   0.00000E+00
       0.00      61257.78         0.25141E+03   0.10476E+03   0.94277E+03   0.00000E+00
       0.00      61298.10         0.25043E+03   0.10435E+03   0.93910E+03   0.00000E+00
       0.00      61338.43         0.24946E+03   0.10395E+03   0.93547E+03   0.00000E+00
       0.00      61378.76         0.24850E+03   0.10355E+03   0.93187E+03   0.00000E+00
       0.00      61419.09         0.24755E+03   0.10315E+03   0.92830E+03   0.00000E+00
       0.00      61459.41         0.24661E+03   0.10276E+03   0.92477E+03   0.00000E+00
       0.00      61499.74         0.24568E+03   0.10237E+03   0.92127E+03   0.00000E+00
       0.00      61540.07         0.24475E+03   0.10198E+03   0.91781E+03   0.00000E+00
       0.00      61580.40         0.24384E+03   0.10160E+03   0.91437E+03   0.00000E+00
       0.00      61620.73         0.24293E+03   0.10122E+03   0.91097E+03   0.00000E+00
       0.00      61661.05         0.24203E+03   0.10085E+03   0.90760E+03   0.00000E+00
       0.00      61701.38         0.24114E+03   0.10048E+03   0.90426E+03   0.00000E+00
       0.00      61741.71         0.24026E+03   0.10011E+03   0.90096E+03   0.00000E+00
       0.00      61782.04         0.23938E+03   0.99746E+02   0.89768E+03   0.00000E+00
       0.00      61822.36         0.23852E+03   0.99386E+02   0.89443E+03   0.00000E+00
       0.00      61862.69         0.23766E+03   0.99028E+02   0.89121E+03   0.00000E+00
       0.00      61903.02         0.23681E+03   0.98674E+02   0.88803E+03   0.00000E+00
       0.00      61943.35         0.23597E+03   0.98323E+02   0.88487E+03   0.00000E+00
       0.00      61983.67         0.23513E+03   0.97975E+02   0.88174E+03   0.00000E+00
       0.00      62024.00         0.23431E+03   0.97631E+02   0.87864E+03   0.00000E+00
       0.00      62064.33         0.23349E+03   0.97289E+02   0.87557E+03   0.00000E+00
       0.00      62104.66         0.23268E+03   0.96951E+02   0.87252E+03   0.00000E+00
       0.00      62144.99         0.23187E+03   0.96616E+02   0.86950E+03   0.00000E+00
       0.00      62185.31         0.23107E+03   0.96284E+02   0.86651E+03   0.00000E+00
       0.00      62225.64         0.23029E+03   0.95955E+02   0.86355E+03   0.00000E+00
       0.00      62265.97         0.22950E+03   0.95629E+02   0.86062E+03   0.00000E+00
       0.00      62306.30         0.22873E+03   0.95306E+02   0.85771E+03   0.00000E+00
       0.00      62346.62         0.22796E+03   0.94985E+02   0.85483E+03   0.00000E+00
       0.00      62386.95         0.22720E+03   0.94668E+02   0.85198E+03   0.00000E+00
       0.00      62427.28         0.22644E+03   0.94354E+02   0.84915E+03   0.00000E+00
       0.00      62467.61         0.22569E+03   0.94042E+02   0.84634E+03   0.00000E+00
       0.00      62507.93         0.22495E+03   0.93733E+02   0.84356E+03   0.00000E+00
       0.00      62548.26         0.22422E+03   0.93427E+02   0.84080E+03   0.00000E+00
       0.00      62588.59         0.22349E+03   0.93124E+02   0.83808E+03   0.00000E+00
       0.00      62628.92         0.22277E+03   0.92823E+02   0.83537E+03   0.00000E+00
       0.00      62669.25         0.22206E+03   0.92525E+02   0.83269E+03   0.00000E+00
       0.00      62709.57         0.22135E+03   0.92231E+02   0.83004E+03   0.00000E+00
       0.00      62749.90         0.22064E+03   0.91938E+02   0.82740E+03   0.00000E+00
       0.00      62790.23         0.21995E+03   0.91648E+02   0.82479E+03   0.00000E+00
       0.00      62830.56         0.21926E+03   0.91360E+02   0.82221E+03   0.00000E+00
       0.00      62870.88         0.21858E+03   0.91076E+02   0.81965E+03   0.00000E+00
       0.00      62911.21         0.21790E+03   0.90794E+02   0.81711E+03   0.00000E+00
       0.00      62951.54         0.21723E+03   0.90514E+02   0.81459E+03   0.00000E+00
       0.00      62991.87         0.21656E+03   0.90236E+02   0.81209E+03   0.00000E+00
       0.00      63032.20         0.21590E+03   0.89962E+02   0.80962E+03   0.00000E+00
       0.00      63072.52         0.21525E+03   0.89690E+02   0.80717E+03   0.00000E+00
       0.00      63112.85         0.21460E+03   0.89420E+02   0.80474E+03   0.00000E+00
       0.00      63153.18         0.21396E+03   0.89153E+02   0.80234E+03   0.00000E+00
       0.00      63193.51         0.21332E+03   0.88888E+02   0.79995E+03   0.00000E+00
       0.00      63233.83         0.21269E+03   0.88624E+02   0.79758E+03   0.00000E+00
       0.00      63274.16         0.21207E+03   0.88364E+02   0.79524E+03   0.00000E+00
       0.00      63314.49         0.21145E+03   0.88106E+02   0.79292E+03   0.00000E+00
       0.00      63354.82         0.21084E+03   0.87851E+02   0.79062E+03   0.00000E+00
       0.00      63395.14         0.21023E+03   0.87597E+02   0.78834E+03   0.00000E+00
       0.00      63435.47         0.20962E+03   0.87346E+02   0.78608E+03   0.00000E+00
       0.00      63475.80         0.20903E+03   0.87097E+02   0.78383E+03   0.00000E+00
       0.00      63516.13         0.20843E+03   0.86850E+02   0.78161E+03   0.00000E+00
       0.00      63556.46         0.20785E+03   0.86605E+02   0.77941E+03   0.00000E+00
       0.00      63596.78         0.20726E+03   0.86363E+02   0.77723E+03   0.00000E+00
       0.00      63637.11         0.20669E+03   0.86122E+02   0.77506E+03   0.00000E+00
       0.00      63677.44         0.20612E+03   0.85884E+02   0.77292E+03   0.00000E+00
       0.00      63717.77         0.20555E+03   0.85648E+02   0.77080E+03   0.00000E+00
       0.00      63758.09         0.20499E+03   0.85414E+02   0.76869E+03   0.00000E+00
       0.00      63798.42         0.20443E+03   0.85182E+02   0.76660E+03   0.00000E+00
       0.00      63838.75         0.20388E+03   0.84952E+02   0.76453E+03   0.00000E+00
       0.00      63879.08         0.20333E+03   0.84724E+02   0.76248E+03   0.00000E+00
       0.00      63919.40         0.20279E+03   0.84498E+02   0.76045E+03   0.00000E+00
       0.00      63959.73         0.20225E+03   0.84275E+02   0.75844E+03   0.00000E+00
       0.00      64000.06         0.20172E+03   0.84052E+02   0.75644E+03   0.00000E+00
       0.00      64040.39         0.20119E+03   0.83833E+02   0.75446E+03   0.00000E+00
       0.00      64080.72         0.20067E+03   0.83615E+02   0.75250E+03   0.00000E+00
       0.00      64121.04         0.20015E+03   0.83398E+02   0.75055E+03   0.00000E+00
       0.00      64161.37         0.19964E+03   0.83185E+02   0.74863E+03   0.00000E+00
       0.00      64201.70         0.19913E+03   0.82972E+02   0.74671E+03   0.00000E+00
       0.00      64242.03         0.19862E+03   0.82762E+02   0.74483E+03   0.00000E+00
       0.00      64282.35         0.19812E+03   0.82553E+02   0.74295E+03   0.00000E+00
       0.00      64322.68         0.19763E+03   0.82347E+02   0.74109E+03   0.00000E+00
       0.00      64363.01         0.19714E+03   0.82142E+02   0.73924E+03   0.00000E+00
       0.00      64403.34         0.19665E+03   0.81939E+02   0.73742E+03   0.00000E+00
       0.00      64443.66         0.19617E+03   0.81738E+02   0.73561E+03   0.00000E+00
       0.00      64483.99         0.19569E+03   0.81538E+02   0.73381E+03   0.00000E+00
       0.00      64524.32         0.19521E+03   0.81341E+02   0.73204E+03   0.00000E+00
       0.00      64564.65         0.19474E+03   0.81145E+02   0.73027E+03   0.00000E+00
       0.00      64604.98         0.19428E+03   0.80951E+02   0.72852E+03   0.00000E+00
       0.00      64645.30         0.19382E+03   0.80759E+02   0.72679E+03   0.00000E+00
       0.00      64685.63         0.19336E+03   0.80568E+02   0.72508E+03   0.00000E+00
       0.00      64725.96         0.19290E+03   0.80379E+02   0.72338E+03   0.00000E+00
       0.00      64766.29         0.19245E+03   0.80192E+02   0.72169E+03   0.00000E+00
       0.00      64806.61         0.19201E+03   0.80006E+02   0.72002E+03   0.00000E+00
       0.00      64846.94         0.19157E+03   0.79822E+02   0.71837E+03   0.00000E+00
       0.00      64887.27         0.19113E+03   0.79640E+02   0.71673E+03   0.00000E+00
       0.00      64927.60         0.19070E+03   0.79459E+02   0.71510E+03   0.00000E+00
       0.00      64967.92         0.19027E+03   0.79280E+02   0.71349E+03   0.00000E+00
       0.00      65008.25         0.18984E+03   0.79103E+02   0.71190E+03   0.00000E+00
       0.00      65048.58         0.18942E+03   0.78927E+02   0.71031E+03   0.00000E+00
       0.00      65088.91         0.18900E+03   0.78753E+02   0.70875E+03   0.00000E+00
       0.00      65129.24         0.18859E+03   0.78580E+02   0.70719E+03   0.00000E+00
       0.00      65169.56         0.18818E+03   0.78409E+02   0.70565E+03   0.00000E+00
       0.00      65209.89         0.18777E+03   0.78239E+02   0.70412E+03   0.00000E+00
       0.00      65250.22         0.18737E+03   0.78071E+02   0.70261E+03   0.00000E+00
       0.00      65290.55         0.18697E+03   0.77905E+02   0.70111E+03   0.00000E+00
       0.00      65330.87         0.18657E+03   0.77740E+02   0.69963E+03   0.00000E+00
       0.00      65371.20         0.18618E+03   0.77577E+02   0.69816E+03   0.00000E+00
       0.00      65411.53         0.18579E+03   0.77415E+02   0.69670E+03   0.00000E+00
       0.00      65451.86         0.18541E+03   0.77255E+02   0.69526E+03   0.00000E+00
       0.00      65492.18         0.18502E+03   0.77096E+02   0.69383E+03   0.00000E+00
       0.00      65532.51         0.18465E+03   0.76938E+02   0.69241E+03   0.00000E+00
       0.00      65572.84         0.18427E+03   0.76782E+02   0.69101E+03   0.00000E+00
       0.00      65613.17         0.18390E+03   0.76627E+02   0.68961E+03   0.00000E+00
       0.00      65653.50         0.18353E+03   0.76474E+02   0.68824E+03   0.00000E+00
       0.00      65693.82         0.18317E+03   0.76322E+02   0.68687E+03   0.00000E+00
       0.00      65734.15         0.18281E+03   0.76172E+02   0.68552E+03   0.00000E+00
       0.00      65774.48         0.18245E+03   0.76023E+02   0.68418E+03   0.00000E+00
       0.00      65814.81         0.18210E+03   0.75876E+02   0.68285E+03   0.00000E+00
       0.00      65855.13         0.18175E+03   0.75729E+02   0.68153E+03   0.00000E+00
       0.00      65895.46         0.18140E+03   0.75585E+02   0.68023E+03   0.00000E+00
       0.00      65935.79         0.18105E+03   0.75441E+02   0.67894E+03   0.00000E+00
       0.00      65976.12         0.18071E+03   0.75299E+02   0.67766E+03   0.00000E+00
       0.00      66016.44         0.18038E+03   0.75158E+02   0.67639E+03   0.00000E+00
       0.00      66056.77         0.18004E+03   0.75019E+02   0.67514E+03   0.00000E+00
       0.00      66097.10         0.17971E+03   0.74881E+02   0.67390E+03   0.00000E+00
       0.00      66137.43         0.17938E+03   0.74744E+02   0.67267E+03   0.00000E+00
       0.00      66177.76         0.17906E+03   0.74609E+02   0.67145E+03   0.00000E+00
       0.00      66218.08         0.17874E+03   0.74475E+02   0.67024E+03   0.00000E+00
       0.00      66258.41         0.17842E+03   0.74342E+02   0.66905E+03   0.00000E+00
       0.00      66298.74         0.17810E+03   0.74211E+02   0.66787E+03   0.00000E+00
       0.00      66339.07         0.17779E+03   0.74080E+02   0.66669E+03   0.00000E+00
       0.00      66379.39         0.17748E+03   0.73951E+02   0.66553E+03   0.00000E+00
       0.00      66419.72         0.17717E+03   0.73824E+02   0.66438E+03   0.00000E+00
       0.00      66460.05         0.17687E+03   0.73697E+02   0.66324E+03   0.00000E+00
       0.00      66500.38         0.17657E+03   0.73572E+02   0.66212E+03   0.00000E+00
       0.00      66540.71         0.17627E+03   0.73448E+02   0.66100E+03   0.00000E+00
       0.00      66581.03         0.17597E+03   0.73325E+02   0.65989E+03   0.00000E+00
       0.00      66621.36         0.17568E+03   0.73203E+02   0.65880E+03   0.00000E+00
       0.00      66661.69         0.17539E+03   0.73083E+02   0.65772E+03   0.00000E+00
       0.00      66702.02         0.17511E+03   0.72964E+02   0.65664E+03   0.00000E+00
       0.00      66742.34         0.17483E+03   0.72846E+02   0.65558E+03   0.00000E+00
       0.00      66782.67         0.17454E+03   0.72729E+02   0.65453E+03   0.00000E+00
       0.00      66823.00         0.17427E+03   0.72613E+02   0.65349E+03   0.00000E+00
       0.00      66863.33         0.17399E+03   0.72499E+02   0.65246E+03   0.00000E+00
       0.00      66903.65         0.17372E+03   0.72386E+02   0.65145E+03   0.00000E+00
       0.00      66943.98         0.17345E+03   0.72274E+02   0.65044E+03   0.00000E+00
       0.00      66984.31         0.17319E+03   0.72163E+02   0.64944E+03   0.00000E+00
       0.00      67024.64         0.17292E+03   0.72053E+02   0.64845E+03   0.00000E+00
       0.00      67064.97         0.17266E+03   0.71945E+02   0.64747E+03   0.00000E+00
       0.00      67105.29         0.17241E+03   0.71838E+02   0.64651E+03   0.00000E+00
       0.00      67145.62         0.17215E+03   0.71731E+02   0.64555E+03   0.00000E+00
       0.00      67185.95         0.17190E+03   0.71626E+02   0.64460E+03   0.00000E+00
       0.00      67226.28         0.17165E+03   0.71522E+02   0.64367E+03   0.00000E+00
       0.00      67266.60         0.17140E+03   0.71419E+02   0.64274E+03   0.00000E+00
       0.00      67306.93         0.17116E+03   0.71317E+02   0.64182E+03   0.00000E+00
       0.00      67347.26         0.17091E+03   0.71216E+02   0.64092E+03   0.00000E+00
       0.00      67387.59         0.17068E+03   0.71117E+02   0.64002E+03   0.00000E+00
       0.00      67427.91         0.17044E+03   0.71018E+02   0.63914E+03   0.00000E+00
       0.00      67468.24         0.17021E+03   0.70921E+02   0.63826E+03   0.00000E+00
       0.00      67508.57         0.16997E+03   0.70824E+02   0.63739E+03   0.00000E+00
       0.00      67548.90         0.16975E+03   0.70729E+02   0.63653E+03   0.00000E+00
       0.00      67589.23         0.16952E+03   0.70635E+02   0.63568E+03   0.00000E+00
       0.00      67629.55         0.16930E+03   0.70542E+02   0.63485E+03   0.00000E+00
       0.00      67669.88         0.16907E+03   0.70450E+02   0.63402E+03   0.00000E+00
       0.00      67710.21         0.16886E+03   0.70358E+02   0.63320E+03   0.00000E+00
       0.00      67750.54         0.16864E+03   0.70268E+02   0.63238E+03   0.00000E+00
       0.00      67790.86         0.16843E+03   0.70179E+02   0.63158E+03   0.00000E+00
       0.00      67831.19         0.16821E+03   0.70091E+02   0.63079E+03   0.00000E+00
       0.00      67871.52         0.16801E+03   0.70004E+02   0.63001E+03   0.00000E+00
       0.00      67911.85         0.16780E+03   0.69918E+02   0.62924E+03   0.00000E+00
       0.00      67952.17         0.16760E+03   0.69834E+02   0.62848E+03   0.00000E+00
       0.00      67992.50         0.16740E+03   0.69750E+02   0.62772E+03   0.00000E+00
       0.00      68032.83         0.16720E+03   0.69667E+02   0.62697E+03   0.00000E+00
       0.00      68073.16         0.16700E+03   0.69585E+02   0.62624E+03   0.00000E+00
       0.00      68113.49         0.16681E+03   0.69504E+02   0.62551E+03   0.00000E+00
       0.00      68153.81         0.16661E+03   0.69425E+02   0.62479E+03   0.00000E+00
       0.00      68194.14         0.16642E+03   0.69346E+02   0.62408E+03   0.00000E+00
       0.00      68234.47         0.16624E+03   0.69268E+02   0.62338E+03   0.00000E+00
       0.00      68274.80         0.16605E+03   0.69191E+02   0.62269E+03   0.00000E+00
       0.00      68315.12         0.16587E+03   0.69115E+02   0.62201E+03   0.00000E+00
       0.00      68355.45         0.16569E+03   0.69040E+02   0.62133E+03   0.00000E+00
       0.00      68395.78         0.16551E+03   0.68966E+02   0.62067E+03   0.00000E+00
       0.00      68436.11         0.16534E+03   0.68893E+02   0.62001E+03   0.00000E+00
       0.00      68476.43         0.16517E+03   0.68821E+02   0.61936E+03   0.00000E+00
       0.00      68516.76         0.16500E+03   0.68750E+02   0.61872E+03   0.00000E+00
       0.00      68557.09         0.16483E+03   0.68680E+02   0.61809E+03   0.00000E+00
       0.00      68597.42         0.16466E+03   0.68611E+02   0.61747E+03   0.00000E+00
       0.00      68637.75         0.16450E+03   0.68543E+02   0.61686E+03   0.00000E+00
       0.00      68678.07         0.16434E+03   0.68475E+02   0.61625E+03   0.00000E+00
       0.00      68718.40         0.16418E+03   0.68409E+02   0.61565E+03   0.00000E+00
       0.00      68758.73         0.16402E+03   0.68344E+02   0.61507E+03   0.00000E+00
       0.00      68799.06         0.16387E+03   0.68280E+02   0.61449E+03   0.00000E+00
       0.00      68839.38         0.16371E+03   0.68216E+02   0.61392E+03   0.00000E+00
       0.00      68879.71         0.16356E+03   0.68153E+02   0.61335E+03   0.00000E+00
       0.00      68920.04         0.16342E+03   0.68092E+02   0.61280E+03   0.00000E+00
       0.00      68960.37         0.16327E+03   0.68031E+02   0.61225E+03   0.00000E+00
       0.00      69000.69         0.16313E+03   0.67971E+02   0.61171E+03   0.00000E+00
       0.00      69041.02         0.16298E+03   0.67912E+02   0.61118E+03   0.00000E+00
       0.00      69081.35         0.16285E+03   0.67854E+02   0.61066E+03   0.00000E+00
       0.00      69121.68         0.16271E+03   0.67797E+02   0.61014E+03   0.00000E+00
       0.00      69162.01         0.16257E+03   0.67741E+02   0.60964E+03   0.00000E+00
       0.00      69202.33         0.16244E+03   0.67686E+02   0.60914E+03   0.00000E+00
       0.00      69242.66         0.16231E+03   0.67631E+02   0.60865E+03   0.00000E+00
       0.00      69282.99         0.16218E+03   0.67578E+02   0.60817E+03   0.00000E+00
       0.00      69323.32         0.16206E+03   0.67525E+02   0.60770E+03   0.00000E+00
       0.00      69363.64         0.16193E+03   0.67474E+02   0.60723E+03   0.00000E+00
       0.00      69403.97         0.16181E+03   0.67423E+02   0.60677E+03   0.00000E+00
       0.00      69444.30         0.16169E+03   0.67373E+02   0.60633E+03   0.00000E+00
       0.00      69484.63         0.16157E+03   0.67324E+02   0.60589E+03   0.00000E+00
       0.00      69524.95         0.16146E+03   0.67276E+02   0.60545E+03   0.00000E+00
       0.00      69565.28         0.16134E+03   0.67228E+02   0.60503E+03   0.00000E+00
       0.00      69605.61         0.16123E+03   0.67182E+02   0.60461E+03   0.00000E+00
       0.00      69645.94         0.16112E+03   0.67136E+02   0.60420E+03   0.00000E+00
       0.00      69686.27         0.16102E+03   0.67091E+02   0.60379E+03   0.00000E+00
       0.00      69726.59         0.16091E+03   0.67048E+02   0.60340E+03   0.00000E+00
       0.00      69766.92         0.16081E+03   0.67005E+02   0.60302E+03   0.00000E+00
       0.00      69807.25         0.16071E+03   0.66963E+02   0.60264E+03   0.00000E+00
       0.00      69847.58         0.16061E+03   0.66922E+02   0.60227E+03   0.00000E+00
       0.00      69887.90         0.16051E+03   0.66881E+02   0.60190E+03   0.00000E+00
       0.00      69928.23         0.16042E+03   0.66842E+02   0.60155E+03   0.00000E+00
       0.00      69968.56         0.16032E+03   0.66803E+02   0.60120E+03   0.00000E+00
       0.00      70008.89         0.16023E+03   0.66765E+02   0.60086E+03   0.00000E+00
       0.00      70049.21         0.16014E+03   0.66728E+02   0.60053E+03   0.00000E+00
       0.00      70089.54         0.16006E+03   0.66692E+02   0.60020E+03   0.00000E+00
       0.00      70129.87         0.15997E+03   0.66657E+02   0.59988E+03   0.00000E+00
       0.00      70170.20         0.15989E+03   0.66623E+02   0.59958E+03   0.00000E+00
       0.00      70210.53         0.15981E+03   0.66589E+02   0.59927E+03   0.00000E+00
       0.00      70250.85         0.15973E+03   0.66556E+02   0.59898E+03   0.00000E+00
       0.00      70291.18         0.15965E+03   0.66524E+02   0.59869E+03   0.00000E+00
       0.00      70331.51         0.15958E+03   0.66493E+02   0.59841E+03   0.00000E+00
       0.00      70371.84         0.15951E+03   0.66463E+02   0.59814E+03   0.00000E+00
       0.00      70412.16         0.15944E+03   0.66434E+02   0.59787E+03   0.00000E+00
       0.00      70452.49         0.15937E+03   0.66405E+02   0.59762E+03   0.00000E+00
       0.00      70492.82         0.15930E+03   0.66377E+02   0.59737E+03   0.00000E+00
       0.00      70533.15         0.15924E+03   0.66350E+02   0.59713E+03   0.00000E+00
       0.00      70573.48         0.15917E+03   0.66324E+02   0.59689E+03   0.00000E+00
       0.00      70613.80         0.15911E+03   0.66299E+02   0.59666E+03   0.00000E+00
       0.00      70654.13         0.15905E+03   0.66274E+02   0.59644E+03   0.00000E+00
       0.00      70694.46         0.15900E+03   0.66251E+02   0.59623E+03   0.00000E+00
       0.00      70734.79         0.15894E+03   0.66228E+02   0.59603E+03   0.00000E+00
       0.00      70775.11         0.15889E+03   0.66206E+02   0.59583E+03   0.00000E+00
       0.00      70815.44         0.15884E+03   0.66185E+02   0.59564E+03   0.00000E+00
       0.00      70855.77         0.15879E+03   0.66165E+02   0.59545E+03   0.00000E+00
       0.00      70896.10         0.15874E+03   0.66145E+02   0.59528E+03   0.00000E+00
       0.00      70936.42         0.15870E+03   0.66126E+02   0.59511E+03   0.00000E+00
       0.00      70976.75         0.15866E+03   0.66108E+02   0.59495E+03   0.00000E+00
       0.00      71017.08         0.15861E+03   0.66091E+02   0.59479E+03   0.00000E+00
       0.00      71057.41         0.15858E+03   0.66075E+02   0.59465E+03   0.00000E+00
       0.00      71097.74         0.15854E+03   0.66060E+02   0.59451E+03   0.00000E+00
       0.00      71138.06         0.15850E+03   0.66045E+02   0.59438E+03   0.00000E+00
       0.00      71178.39         0.15847E+03   0.66031E+02   0.59425E+03   0.00000E+00
       0.00      71218.72         0.15844E+03   0.66018E+02   0.59414E+03   0.00000E+00
       0.00      71259.05         0.15841E+03   0.66006E+02   0.59403E+03   0.00000E+00
       0.00      71299.37         0.15838E+03   0.65995E+02   0.59393E+03   0.00000E+00
       0.00      71339.70         0.15836E+03   0.65984E+02   0.59383E+03   0.00000E+00
       0.00      71380.03         0.15833E+03   0.65974E+02   0.59374E+03   0.00000E+00
       0.00      71420.36         0.15831E+03   0.65965E+02   0.59366E+03   0.00000E+00
       0.00      71460.68         0.15829E+03   0.65957E+02   0.59359E+03   0.00000E+00
       0.00      71501.01         0.15828E+03   0.65950E+02   0.59352E+03   0.00000E+00
       0.00      71541.34         0.15826E+03   0.65943E+02   0.59346E+03   0.00000E+00
       0.00      71581.67         0.15825E+03   0.65938E+02   0.59341E+03   0.00000E+00
       0.00      71622.00         0.15823E+03   0.65933E+02   0.59337E+03   0.00000E+00
       0.00      71662.32         0.15822E+03   0.65928E+02   0.59333E+03   0.00000E+00
       0.00      71702.65         0.15822E+03   0.65926E+02   0.59330E+03   0.00000E+00
       0.00      71742.98         0.15821E+03   0.65923E+02   0.59328E+03   0.00000E+00
       0.00      71783.31         0.15821E+03   0.65921E+02   0.59326E+03   0.00000E+00
       0.00      71823.63         0.15820E+03   0.65920E+02   0.59325E+03   0.00000E+00
       0.00      71863.96         0.15820E+03   0.65920E+02   0.59325E+03   0.00000E+00
       0.00      71904.29         0.15821E+03   0.65921E+02   0.59326E+03   0.00000E+00
       0.00      71944.62         0.15821E+03   0.65922E+02   0.59327E+03   0.00000E+00
       0.00      71984.94         0.15821E+03   0.65925E+02   0.59329E+03   0.00000E+00
       0.00      72025.27         0.15822E+03   0.65928E+02   0.59332E+03   0.00000E+00
       0.00      72065.60         0.15823E+03   0.65932E+02   0.59336E+03   0.00000E+00
       0.00      72105.93         0.15824E+03   0.65936E+02   0.59340E+03   0.00000E+00
       0.00      72146.26         0.15826E+03   0.65942E+02   0.59345E+03   0.00000E+00
       0.00      72186.58         0.15827E+03   0.65948E+02   0.59351E+03   0.00000E+00
       0.00      72226.91         0.15829E+03   0.65956E+02   0.59357E+03   0.00000E+00
       0.00      72267.24         0.15831E+03   0.65964E+02   0.59364E+03   0.00000E+00
       0.00      72307.57         0.15833E+03   0.65972E+02   0.59372E+03   0.00000E+00
       0.00      72347.89         0.15835E+03   0.65982E+02   0.59381E+03   0.00000E+00
       0.00      72388.22         0.15838E+03   0.65992E+02   0.59390E+03   0.00000E+00
       0.00      72428.55         0.15840E+03   0.66003E+02   0.59400E+03   0.00000E+00
       0.00      72468.88         0.15843E+03   0.66015E+02   0.59411E+03   0.00000E+00
       0.00      72509.20         0.15846E+03   0.66028E+02   0.59422E+03   0.00000E+00
       0.00      72549.53         0.15849E+03   0.66041E+02   0.59434E+03   0.00000E+00
       0.00      72589.86         0.15853E+03   0.66056E+02   0.59448E+03   0.00000E+00
   
  Raman shift    inc freq             spec           a**2         g**2         d**2
  
 osc           1  nq max           1
