  Raman shift    inc freq             spec           a**2         g**2         d**2
  
 osc           1  nq max           0
       0.00      32262.16         0.38139E+03   0.16113E+03   0.14160E+04   0.00000E+00
       0.00      32302.49         0.38344E+03   0.16200E+03   0.14236E+04   0.00000E+00
       0.00      32342.82         0.38550E+03   0.16287E+03   0.14312E+04   0.00000E+00
       0.00      32383.14         0.38759E+03   0.16375E+03   0.14390E+04   0.00000E+00
       0.00      32423.47         0.38970E+03   0.16464E+03   0.14468E+04   0.00000E+00
       0.00      32463.80         0.39184E+03   0.16554E+03   0.14548E+04   0.00000E+00
       0.00      32504.13         0.39399E+03   0.16645E+03   0.14628E+04   0.00000E+00
       0.00      32544.45         0.39617E+03   0.16737E+03   0.14709E+04   0.00000E+00
       0.00      32584.78         0.39837E+03   0.16830E+03   0.14791E+04   0.00000E+00
       0.00      32625.11         0.40060E+03   0.16924E+03   0.14873E+04   0.00000E+00
       0.00      32665.44         0.40285E+03   0.17019E+03   0.14957E+04   0.00000E+00
       0.00      32705.76         0.40513E+03   0.17115E+03   0.15042E+04   0.00000E+00
       0.00      32746.09         0.40743E+03   0.17212E+03   0.15127E+04   0.00000E+00
       0.00      32786.42         0.40975E+03   0.17310E+03   0.15214E+04   0.00000E+00
       0.00      32826.75         0.41211E+03   0.17409E+03   0.15301E+04   0.00000E+00
       0.00      32867.08         0.41448E+03   0.17509E+03   0.15389E+04   0.00000E+00
       0.00      32907.40         0.41689E+03   0.17611E+03   0.15479E+04   0.00000E+00
       0.00      32947.73         0.41932E+03   0.17714E+03   0.15569E+04   0.00000E+00
       0.00      32988.06         0.42178E+03   0.17817E+03   0.15661E+04   0.00000E+00
       0.00      33028.39         0.42427E+03   0.17922E+03   0.15753E+04   0.00000E+00
       0.00      33068.71         0.42678E+03   0.18028E+03   0.15846E+04   0.00000E+00
       0.00      33109.04         0.42932E+03   0.18135E+03   0.15941E+04   0.00000E+00
       0.00      33149.37         0.43190E+03   0.18244E+03   0.16037E+04   0.00000E+00
       0.00      33189.70         0.43450E+03   0.18354E+03   0.16133E+04   0.00000E+00
       0.00      33230.02         0.43713E+03   0.18465E+03   0.16231E+04   0.00000E+00
       0.00      33270.35         0.43979E+03   0.18577E+03   0.16330E+04   0.00000E+00
       0.00      33310.68         0.44248E+03   0.18690E+03   0.16430E+04   0.00000E+00
       0.00      33351.01         0.44521E+03   0.18805E+03   0.16531E+04   0.00000E+00
       0.00      33391.34         0.44796E+03   0.18922E+03   0.16634E+04   0.00000E+00
       0.00      33431.66         0.45075E+03   0.19039E+03   0.16737E+04   0.00000E+00
       0.00      33471.99         0.45357E+03   0.19158E+03   0.16842E+04   0.00000E+00
       0.00      33512.32         0.45642E+03   0.19278E+03   0.16948E+04   0.00000E+00
       0.00      33552.65         0.45931E+03   0.19400E+03   0.17055E+04   0.00000E+00
       0.00      33592.97         0.46223E+03   0.19523E+03   0.17164E+04   0.00000E+00
       0.00      33633.30         0.46519E+03   0.19648E+03   0.17274E+04   0.00000E+00
       0.00      33673.63         0.46818E+03   0.19774E+03   0.17385E+04   0.00000E+00
       0.00      33713.96         0.47120E+03   0.19902E+03   0.17498E+04   0.00000E+00
       0.00      33754.28         0.47427E+03   0.20031E+03   0.17611E+04   0.00000E+00
       0.00      33794.61         0.47737E+03   0.20162E+03   0.17727E+04   0.00000E+00
       0.00      33834.94         0.48051E+03   0.20294E+03   0.17843E+04   0.00000E+00
       0.00      33875.27         0.48368E+03   0.20428E+03   0.17961E+04   0.00000E+00
       0.00      33915.60         0.48690E+03   0.20564E+03   0.18081E+04   0.00000E+00
       0.00      33955.92         0.49015E+03   0.20701E+03   0.18202E+04   0.00000E+00
       0.00      33996.25         0.49345E+03   0.20840E+03   0.18324E+04   0.00000E+00
       0.00      34036.58         0.49678E+03   0.20981E+03   0.18448E+04   0.00000E+00
       0.00      34076.91         0.50016E+03   0.21123E+03   0.18574E+04   0.00000E+00
       0.00      34117.23         0.50358E+03   0.21267E+03   0.18701E+04   0.00000E+00
       0.00      34157.56         0.50704E+03   0.21413E+03   0.18830E+04   0.00000E+00
       0.00      34197.89         0.51055E+03   0.21561E+03   0.18960E+04   0.00000E+00
       0.00      34238.22         0.51410E+03   0.21711E+03   0.19092E+04   0.00000E+00
       0.00      34278.55         0.51769E+03   0.21863E+03   0.19226E+04   0.00000E+00
       0.00      34318.87         0.52133E+03   0.22016E+03   0.19361E+04   0.00000E+00
       0.00      34359.20         0.52502E+03   0.22172E+03   0.19498E+04   0.00000E+00
       0.00      34399.53         0.52875E+03   0.22329E+03   0.19637E+04   0.00000E+00
       0.00      34439.86         0.53254E+03   0.22489E+03   0.19778E+04   0.00000E+00
       0.00      34480.18         0.53637E+03   0.22650E+03   0.19920E+04   0.00000E+00
       0.00      34520.51         0.54025E+03   0.22814E+03   0.20065E+04   0.00000E+00
       0.00      34560.84         0.54419E+03   0.22980E+03   0.20211E+04   0.00000E+00
       0.00      34601.17         0.54817E+03   0.23148E+03   0.20359E+04   0.00000E+00
       0.00      34641.49         0.55221E+03   0.23318E+03   0.20509E+04   0.00000E+00
       0.00      34681.82         0.55630E+03   0.23491E+03   0.20661E+04   0.00000E+00
       0.00      34722.15         0.56045E+03   0.23665E+03   0.20815E+04   0.00000E+00
       0.00      34762.48         0.56465E+03   0.23843E+03   0.20972E+04   0.00000E+00
       0.00      34802.81         0.56891E+03   0.24022E+03   0.21130E+04   0.00000E+00
       0.00      34843.13         0.57322E+03   0.24204E+03   0.21290E+04   0.00000E+00
       0.00      34883.46         0.57760E+03   0.24389E+03   0.21453E+04   0.00000E+00
       0.00      34923.79         0.58203E+03   0.24576E+03   0.21618E+04   0.00000E+00
       0.00      34964.12         0.58653E+03   0.24765E+03   0.21785E+04   0.00000E+00
       0.00      35004.44         0.59108E+03   0.24957E+03   0.21954E+04   0.00000E+00
       0.00      35044.77         0.59571E+03   0.25152E+03   0.22126E+04   0.00000E+00
       0.00      35085.10         0.60039E+03   0.25350E+03   0.22300E+04   0.00000E+00
       0.00      35125.43         0.60514E+03   0.25550E+03   0.22477E+04   0.00000E+00
       0.00      35165.75         0.60996E+03   0.25753E+03   0.22656E+04   0.00000E+00
       0.00      35206.08         0.61485E+03   0.25959E+03   0.22838E+04   0.00000E+00
       0.00      35246.41         0.61980E+03   0.26168E+03   0.23022E+04   0.00000E+00
       0.00      35286.74         0.62482E+03   0.26380E+03   0.23209E+04   0.00000E+00
       0.00      35327.07         0.62992E+03   0.26595E+03   0.23398E+04   0.00000E+00
       0.00      35367.39         0.63510E+03   0.26813E+03   0.23591E+04   0.00000E+00
       0.00      35407.72         0.64034E+03   0.27034E+03   0.23786E+04   0.00000E+00
       0.00      35448.05         0.64566E+03   0.27258E+03   0.23984E+04   0.00000E+00
       0.00      35488.38         0.65106E+03   0.27486E+03   0.24185E+04   0.00000E+00
       0.00      35528.70         0.65655E+03   0.27717E+03   0.24388E+04   0.00000E+00
       0.00      35569.03         0.66211E+03   0.27952E+03   0.24595E+04   0.00000E+00
       0.00      35609.36         0.66775E+03   0.28190E+03   0.24805E+04   0.00000E+00
       0.00      35649.69         0.67348E+03   0.28431E+03   0.25018E+04   0.00000E+00
       0.00      35690.01         0.67930E+03   0.28676E+03   0.25235E+04   0.00000E+00
       0.00      35730.34         0.68520E+03   0.28925E+03   0.25454E+04   0.00000E+00
       0.00      35770.67         0.69120E+03   0.29178E+03   0.25677E+04   0.00000E+00
       0.00      35811.00         0.69728E+03   0.29434E+03   0.25903E+04   0.00000E+00
       0.00      35851.33         0.70346E+03   0.29695E+03   0.26133E+04   0.00000E+00
       0.00      35891.65         0.70974E+03   0.29959E+03   0.26366E+04   0.00000E+00
       0.00      35931.98         0.71611E+03   0.30228E+03   0.26604E+04   0.00000E+00
       0.00      35972.31         0.72259E+03   0.30501E+03   0.26844E+04   0.00000E+00
       0.00      36012.64         0.72916E+03   0.30778E+03   0.27089E+04   0.00000E+00
       0.00      36052.96         0.73584E+03   0.31060E+03   0.27337E+04   0.00000E+00
       0.00      36093.29         0.74263E+03   0.31346E+03   0.27590E+04   0.00000E+00
       0.00      36133.62         0.74952E+03   0.31636E+03   0.27846E+04   0.00000E+00
       0.00      36173.95         0.75653E+03   0.31932E+03   0.28107E+04   0.00000E+00
       0.00      36214.27         0.76365E+03   0.32232E+03   0.28372E+04   0.00000E+00
       0.00      36254.60         0.77089E+03   0.32537E+03   0.28641E+04   0.00000E+00
       0.00      36294.93         0.77824E+03   0.32847E+03   0.28914E+04   0.00000E+00
       0.00      36335.26         0.78572E+03   0.33162E+03   0.29192E+04   0.00000E+00
       0.00      36375.59         0.79333E+03   0.33482E+03   0.29475E+04   0.00000E+00
       0.00      36415.91         0.80106E+03   0.33808E+03   0.29763E+04   0.00000E+00
       0.00      36456.24         0.80892E+03   0.34139E+03   0.30055E+04   0.00000E+00
       0.00      36496.57         0.81691E+03   0.34476E+03   0.30352E+04   0.00000E+00
       0.00      36536.90         0.82504E+03   0.34819E+03   0.30655E+04   0.00000E+00
       0.00      36577.22         0.83331E+03   0.35167E+03   0.30963E+04   0.00000E+00
       0.00      36617.55         0.84173E+03   0.35522E+03   0.31276E+04   0.00000E+00
       0.00      36657.88         0.85029E+03   0.35883E+03   0.31594E+04   0.00000E+00
       0.00      36698.21         0.85900E+03   0.36250E+03   0.31918E+04   0.00000E+00
       0.00      36738.53         0.86787E+03   0.36623E+03   0.32248E+04   0.00000E+00
       0.00      36778.86         0.87689E+03   0.37004E+03   0.32584E+04   0.00000E+00
       0.00      36819.19         0.88608E+03   0.37391E+03   0.32925E+04   0.00000E+00
       0.00      36859.52         0.89543E+03   0.37785E+03   0.33273E+04   0.00000E+00
       0.00      36899.85         0.90495E+03   0.38186E+03   0.33627E+04   0.00000E+00
       0.00      36940.17         0.91465E+03   0.38594E+03   0.33988E+04   0.00000E+00
       0.00      36980.50         0.92452E+03   0.39011E+03   0.34355E+04   0.00000E+00
       0.00      37020.83         0.93458E+03   0.39434E+03   0.34730E+04   0.00000E+00
       0.00      37061.16         0.94483E+03   0.39866E+03   0.35111E+04   0.00000E+00
       0.00      37101.48         0.95527E+03   0.40306E+03   0.35499E+04   0.00000E+00
       0.00      37141.81         0.96591E+03   0.40754E+03   0.35895E+04   0.00000E+00
       0.00      37182.14         0.97675E+03   0.41211E+03   0.36298E+04   0.00000E+00
       0.00      37222.47         0.98781E+03   0.41677E+03   0.36710E+04   0.00000E+00
       0.00      37262.79         0.99907E+03   0.42151E+03   0.37129E+04   0.00000E+00
       0.00      37303.12         0.10106E+04   0.42635E+03   0.37556E+04   0.00000E+00
       0.00      37343.45         0.10223E+04   0.43129E+03   0.37992E+04   0.00000E+00
       0.00      37383.78         0.10342E+04   0.43632E+03   0.38437E+04   0.00000E+00
       0.00      37424.11         0.10464E+04   0.44146E+03   0.38890E+04   0.00000E+00
       0.00      37464.43         0.10589E+04   0.44669E+03   0.39353E+04   0.00000E+00
       0.00      37504.76         0.10715E+04   0.45204E+03   0.39825E+04   0.00000E+00
       0.00      37545.09         0.10845E+04   0.45750E+03   0.40307E+04   0.00000E+00
       0.00      37585.42         0.10977E+04   0.46306E+03   0.40799E+04   0.00000E+00
       0.00      37625.74         0.11112E+04   0.46875E+03   0.41301E+04   0.00000E+00
       0.00      37666.07         0.11250E+04   0.47455E+03   0.41814E+04   0.00000E+00
       0.00      37706.40         0.11391E+04   0.48048E+03   0.42338E+04   0.00000E+00
       0.00      37746.73         0.11535E+04   0.48654E+03   0.42873E+04   0.00000E+00
       0.00      37787.05         0.11681E+04   0.49273E+03   0.43420E+04   0.00000E+00
       0.00      37827.38         0.11832E+04   0.49905E+03   0.43978E+04   0.00000E+00
       0.00      37867.71         0.11985E+04   0.50551E+03   0.44550E+04   0.00000E+00
       0.00      37908.04         0.12142E+04   0.51212E+03   0.45133E+04   0.00000E+00
       0.00      37948.37         0.12302E+04   0.51888E+03   0.45730E+04   0.00000E+00
       0.00      37988.69         0.12466E+04   0.52579E+03   0.46341E+04   0.00000E+00
       0.00      38029.02         0.12634E+04   0.53286E+03   0.46966E+04   0.00000E+00
       0.00      38069.35         0.12806E+04   0.54009E+03   0.47605E+04   0.00000E+00
       0.00      38109.68         0.12982E+04   0.54749E+03   0.48259E+04   0.00000E+00
       0.00      38150.00         0.13162E+04   0.55507E+03   0.48929E+04   0.00000E+00
       0.00      38190.33         0.13346E+04   0.56282E+03   0.49615E+04   0.00000E+00
       0.00      38230.66         0.13535E+04   0.57077E+03   0.50317E+04   0.00000E+00
       0.00      38270.99         0.13728E+04   0.57891E+03   0.51037E+04   0.00000E+00
       0.00      38311.32         0.13926E+04   0.58725E+03   0.51774E+04   0.00000E+00
       0.00      38351.64         0.14129E+04   0.59580E+03   0.52530E+04   0.00000E+00
       0.00      38391.97         0.14337E+04   0.60456E+03   0.53304E+04   0.00000E+00
       0.00      38432.30         0.14551E+04   0.61355E+03   0.54099E+04   0.00000E+00
       0.00      38472.63         0.14770E+04   0.62278E+03   0.54915E+04   0.00000E+00
       0.00      38512.95         0.14995E+04   0.63224E+03   0.55751E+04   0.00000E+00
       0.00      38553.28         0.15225E+04   0.64195E+03   0.56610E+04   0.00000E+00
       0.00      38593.61         0.15462E+04   0.65192E+03   0.57492E+04   0.00000E+00
       0.00      38633.94         0.15706E+04   0.66216E+03   0.58397E+04   0.00000E+00
       0.00      38674.26         0.15956E+04   0.67268E+03   0.59328E+04   0.00000E+00
       0.00      38714.59         0.16213E+04   0.68350E+03   0.60285E+04   0.00000E+00
       0.00      38754.92         0.16477E+04   0.69462E+03   0.61268E+04   0.00000E+00
       0.00      38795.25         0.16748E+04   0.70605E+03   0.62279E+04   0.00000E+00
       0.00      38835.58         0.17028E+04   0.71782E+03   0.63320E+04   0.00000E+00
       0.00      38875.90         0.17316E+04   0.72993E+03   0.64391E+04   0.00000E+00
       0.00      38916.23         0.17612E+04   0.74239E+03   0.65494E+04   0.00000E+00
       0.00      38956.56         0.17917E+04   0.75523E+03   0.66630E+04   0.00000E+00
       0.00      38996.89         0.18231E+04   0.76846E+03   0.67800E+04   0.00000E+00
       0.00      39037.21         0.18555E+04   0.78209E+03   0.69006E+04   0.00000E+00
       0.00      39077.54         0.18889E+04   0.79614E+03   0.70249E+04   0.00000E+00
       0.00      39117.87         0.19233E+04   0.81063E+03   0.71531E+04   0.00000E+00
       0.00      39158.20         0.19589E+04   0.82558E+03   0.72854E+04   0.00000E+00
       0.00      39198.52         0.19955E+04   0.84100E+03   0.74219E+04   0.00000E+00
       0.00      39238.85         0.20333E+04   0.85692E+03   0.75628E+04   0.00000E+00
       0.00      39279.18         0.20724E+04   0.87334E+03   0.77081E+04   0.00000E+00
       0.00      39319.51         0.21126E+04   0.89028E+03   0.78581E+04   0.00000E+00
       0.00      39359.84         0.21542E+04   0.90775E+03   0.80128E+04   0.00000E+00
       0.00      39400.16         0.21970E+04   0.92576E+03   0.81723E+04   0.00000E+00
       0.00      39440.49         0.22411E+04   0.94432E+03   0.83366E+04   0.00000E+00
       0.00      39480.82         0.22865E+04   0.96341E+03   0.85057E+04   0.00000E+00
       0.00      39521.15         0.23332E+04   0.98302E+03   0.86795E+04   0.00000E+00
       0.00      39561.47         0.23810E+04   0.10031E+04   0.88578E+04   0.00000E+00
       0.00      39601.80         0.24300E+04   0.10237E+04   0.90403E+04   0.00000E+00
       0.00      39642.13         0.24800E+04   0.10447E+04   0.92267E+04   0.00000E+00
       0.00      39682.46         0.25310E+04   0.10661E+04   0.94167E+04   0.00000E+00
       0.00      39722.78         0.25829E+04   0.10880E+04   0.96104E+04   0.00000E+00
       0.00      39763.11         0.26358E+04   0.11102E+04   0.98077E+04   0.00000E+00
       0.00      39803.44         0.26899E+04   0.11329E+04   0.10009E+05   0.00000E+00
       0.00      39843.77         0.27454E+04   0.11562E+04   0.10216E+05   0.00000E+00
       0.00      39884.10         0.28027E+04   0.11802E+04   0.10430E+05   0.00000E+00
       0.00      39924.42         0.28623E+04   0.12053E+04   0.10652E+05   0.00000E+00
       0.00      39964.75         0.29248E+04   0.12315E+04   0.10886E+05   0.00000E+00
       0.00      40005.08         0.29906E+04   0.12591E+04   0.11131E+05   0.00000E+00
       0.00      40045.41         0.30601E+04   0.12883E+04   0.11390E+05   0.00000E+00
       0.00      40085.73         0.31337E+04   0.13192E+04   0.11665E+05   0.00000E+00
       0.00      40126.06         0.32115E+04   0.13519E+04   0.11955E+05   0.00000E+00
       0.00      40166.39         0.32938E+04   0.13865E+04   0.12262E+05   0.00000E+00
       0.00      40206.72         0.33807E+04   0.14229E+04   0.12586E+05   0.00000E+00
       0.00      40247.04         0.34722E+04   0.14614E+04   0.12927E+05   0.00000E+00
       0.00      40287.37         0.35685E+04   0.15018E+04   0.13286E+05   0.00000E+00
       0.00      40327.70         0.36695E+04   0.15442E+04   0.13662E+05   0.00000E+00
       0.00      40368.03         0.37753E+04   0.15886E+04   0.14057E+05   0.00000E+00
       0.00      40408.36         0.38858E+04   0.16350E+04   0.14469E+05   0.00000E+00
       0.00      40448.68         0.40011E+04   0.16834E+04   0.14899E+05   0.00000E+00
       0.00      40489.01         0.41211E+04   0.17338E+04   0.15347E+05   0.00000E+00
       0.00      40529.34         0.42457E+04   0.17861E+04   0.15812E+05   0.00000E+00
       0.00      40569.67         0.43747E+04   0.18402E+04   0.16293E+05   0.00000E+00
       0.00      40609.99         0.45082E+04   0.18962E+04   0.16791E+05   0.00000E+00
       0.00      40650.32         0.46460E+04   0.19540E+04   0.17306E+05   0.00000E+00
       0.00      40690.65         0.47884E+04   0.20138E+04   0.17837E+05   0.00000E+00
       0.00      40730.98         0.49357E+04   0.20756E+04   0.18387E+05   0.00000E+00
       0.00      40771.30         0.50887E+04   0.21398E+04   0.18958E+05   0.00000E+00
       0.00      40811.63         0.52484E+04   0.22068E+04   0.19553E+05   0.00000E+00
       0.00      40851.96         0.54164E+04   0.22772E+04   0.20180E+05   0.00000E+00
       0.00      40892.29         0.55945E+04   0.23520E+04   0.20845E+05   0.00000E+00
       0.00      40932.62         0.57848E+04   0.24318E+04   0.21555E+05   0.00000E+00
       0.00      40972.94         0.59893E+04   0.25175E+04   0.22319E+05   0.00000E+00
       0.00      41013.27         0.62099E+04   0.26100E+04   0.23142E+05   0.00000E+00
       0.00      41053.60         0.64480E+04   0.27099E+04   0.24031E+05   0.00000E+00
       0.00      41093.93         0.67046E+04   0.28175E+04   0.24989E+05   0.00000E+00
       0.00      41134.25         0.69804E+04   0.29331E+04   0.26018E+05   0.00000E+00
       0.00      41174.58         0.72747E+04   0.30564E+04   0.27118E+05   0.00000E+00
       0.00      41214.91         0.75863E+04   0.31870E+04   0.28281E+05   0.00000E+00
       0.00      41255.24         0.79126E+04   0.33237E+04   0.29500E+05   0.00000E+00
       0.00      41295.56         0.82486E+04   0.34644E+04   0.30755E+05   0.00000E+00
       0.00      41335.89         0.85876E+04   0.36064E+04   0.32022E+05   0.00000E+00
       0.00      41376.22         0.89201E+04   0.37456E+04   0.33265E+05   0.00000E+00
       0.00      41416.55         0.92328E+04   0.38765E+04   0.34433E+05   0.00000E+00
       0.00      41456.88         0.95096E+04   0.39923E+04   0.35468E+05   0.00000E+00
       0.00      41497.20         0.97319E+04   0.40852E+04   0.36300E+05   0.00000E+00
       0.00      41537.53         0.98802E+04   0.41472E+04   0.36855E+05   0.00000E+00
       0.00      41577.86         0.99378E+04   0.41711E+04   0.37071E+05   0.00000E+00
       0.00      41618.19         0.98948E+04   0.41530E+04   0.36912E+05   0.00000E+00
       0.00      41658.51         0.97521E+04   0.40931E+04   0.36379E+05   0.00000E+00
       0.00      41698.84         0.95237E+04   0.39975E+04   0.35526E+05   0.00000E+00
       0.00      41739.17         0.92354E+04   0.38768E+04   0.34448E+05   0.00000E+00
       0.00      41779.50         0.89209E+04   0.37453E+04   0.33272E+05   0.00000E+00
       0.00      41819.82         0.86151E+04   0.36174E+04   0.32128E+05   0.00000E+00
       0.00      41860.15         0.83475E+04   0.35057E+04   0.31126E+05   0.00000E+00
       0.00      41900.48         0.81383E+04   0.34184E+04   0.30342E+05   0.00000E+00
       0.00      41940.81         0.79970E+04   0.33596E+04   0.29812E+05   0.00000E+00
       0.00      41981.14         0.79234E+04   0.33291E+04   0.29535E+05   0.00000E+00
       0.00      42021.46         0.79088E+04   0.33233E+04   0.29478E+05   0.00000E+00
       0.00      42061.79         0.79403E+04   0.33367E+04   0.29594E+05   0.00000E+00
       0.00      42102.12         0.80020E+04   0.33628E+04   0.29823E+05   0.00000E+00
       0.00      42142.45         0.80783E+04   0.33949E+04   0.30107E+05   0.00000E+00
       0.00      42182.77         0.81555E+04   0.34274E+04   0.30395E+05   0.00000E+00
       0.00      42223.10         0.82232E+04   0.34558E+04   0.30647E+05   0.00000E+00
       0.00      42263.43         0.82748E+04   0.34775E+04   0.30840E+05   0.00000E+00
       0.00      42303.76         0.83079E+04   0.34914E+04   0.30963E+05   0.00000E+00
       0.00      42344.09         0.83236E+04   0.34980E+04   0.31021E+05   0.00000E+00
       0.00      42384.41         0.83255E+04   0.34990E+04   0.31028E+05   0.00000E+00
       0.00      42424.74         0.83196E+04   0.34966E+04   0.31005E+05   0.00000E+00
       0.00      42465.07         0.83125E+04   0.34939E+04   0.30977E+05   0.00000E+00
       0.00      42505.40         0.83108E+04   0.34934E+04   0.30969E+05   0.00000E+00
       0.00      42545.72         0.83196E+04   0.34974E+04   0.31000E+05   0.00000E+00
       0.00      42586.05         0.83427E+04   0.35074E+04   0.31084E+05   0.00000E+00
       0.00      42626.38         0.83823E+04   0.35244E+04   0.31229E+05   0.00000E+00
       0.00      42666.71         0.84401E+04   0.35491E+04   0.31442E+05   0.00000E+00
       0.00      42707.03         0.85178E+04   0.35821E+04   0.31730E+05   0.00000E+00
       0.00      42747.36         0.86176E+04   0.36244E+04   0.32099E+05   0.00000E+00
       0.00      42787.69         0.87417E+04   0.36768E+04   0.32560E+05   0.00000E+00
       0.00      42828.02         0.88917E+04   0.37402E+04   0.33117E+05   0.00000E+00
       0.00      42868.35         0.90678E+04   0.38144E+04   0.33772E+05   0.00000E+00
       0.00      42908.67         0.92684E+04   0.38989E+04   0.34518E+05   0.00000E+00
       0.00      42949.00         0.94901E+04   0.39922E+04   0.35344E+05   0.00000E+00
       0.00      42989.33         0.97278E+04   0.40922E+04   0.36229E+05   0.00000E+00
       0.00      43029.66         0.99751E+04   0.41962E+04   0.37150E+05   0.00000E+00
       0.00      43069.98         0.10224E+05   0.43009E+04   0.38077E+05   0.00000E+00
       0.00      43110.31         0.10466E+05   0.44029E+04   0.38980E+05   0.00000E+00
       0.00      43150.64         0.10694E+05   0.44984E+04   0.39826E+05   0.00000E+00
       0.00      43190.97         0.10897E+05   0.45842E+04   0.40585E+05   0.00000E+00
       0.00      43231.29         0.11071E+05   0.46575E+04   0.41232E+05   0.00000E+00
       0.00      43271.62         0.11211E+05   0.47161E+04   0.41750E+05   0.00000E+00
       0.00      43311.95         0.11313E+05   0.47593E+04   0.42129E+05   0.00000E+00
       0.00      43352.28         0.11378E+05   0.47870E+04   0.42371E+05   0.00000E+00
       0.00      43392.61         0.11409E+05   0.48004E+04   0.42486E+05   0.00000E+00
       0.00      43432.93         0.11414E+05   0.48026E+04   0.42500E+05   0.00000E+00
       0.00      43473.26         0.11401E+05   0.47977E+04   0.42453E+05   0.00000E+00
       0.00      43513.59         0.11386E+05   0.47914E+04   0.42392E+05   0.00000E+00
       0.00      43553.92         0.11380E+05   0.47891E+04   0.42368E+05   0.00000E+00
       0.00      43594.24         0.11394E+05   0.47955E+04   0.42421E+05   0.00000E+00
       0.00      43634.57         0.11436E+05   0.48130E+04   0.42574E+05   0.00000E+00
       0.00      43674.90         0.11503E+05   0.48412E+04   0.42823E+05   0.00000E+00
       0.00      43715.23         0.11587E+05   0.48765E+04   0.43136E+05   0.00000E+00
       0.00      43755.55         0.11673E+05   0.49128E+04   0.43459E+05   0.00000E+00
       0.00      43795.88         0.11744E+05   0.49422E+04   0.43723E+05   0.00000E+00
       0.00      43836.21         0.11779E+05   0.49570E+04   0.43858E+05   0.00000E+00
       0.00      43876.54         0.11765E+05   0.49508E+04   0.43807E+05   0.00000E+00
       0.00      43916.87         0.11693E+05   0.49203E+04   0.43541E+05   0.00000E+00
       0.00      43957.19         0.11565E+05   0.48660E+04   0.43063E+05   0.00000E+00
       0.00      43997.52         0.11388E+05   0.47916E+04   0.42407E+05   0.00000E+00
       0.00      44037.85         0.11179E+05   0.47035E+04   0.41627E+05   0.00000E+00
       0.00      44078.18         0.10954E+05   0.46091E+04   0.40790E+05   0.00000E+00
       0.00      44118.50         0.10731E+05   0.45151E+04   0.39956E+05   0.00000E+00
       0.00      44158.83         0.10521E+05   0.44274E+04   0.39176E+05   0.00000E+00
       0.00      44199.16         0.10336E+05   0.43497E+04   0.38483E+05   0.00000E+00
       0.00      44239.49         0.10179E+05   0.42838E+04   0.37895E+05   0.00000E+00
       0.00      44279.81         0.10050E+05   0.42302E+04   0.37415E+05   0.00000E+00
       0.00      44320.14         0.99481E+04   0.41875E+04   0.37032E+05   0.00000E+00
       0.00      44360.47         0.98670E+04   0.41537E+04   0.36728E+05   0.00000E+00
       0.00      44400.80         0.98010E+04   0.41262E+04   0.36481E+05   0.00000E+00
       0.00      44441.13         0.97443E+04   0.41026E+04   0.36268E+05   0.00000E+00
       0.00      44481.45         0.96920E+04   0.40809E+04   0.36071E+05   0.00000E+00
       0.00      44521.78         0.96415E+04   0.40599E+04   0.35882E+05   0.00000E+00
       0.00      44562.11         0.95916E+04   0.40391E+04   0.35694E+05   0.00000E+00
       0.00      44602.44         0.95429E+04   0.40189E+04   0.35511E+05   0.00000E+00
       0.00      44642.76         0.94965E+04   0.39996E+04   0.35337E+05   0.00000E+00
       0.00      44683.09         0.94547E+04   0.39823E+04   0.35180E+05   0.00000E+00
       0.00      44723.42         0.94187E+04   0.39675E+04   0.35044E+05   0.00000E+00
       0.00      44763.75         0.93896E+04   0.39555E+04   0.34933E+05   0.00000E+00
       0.00      44804.07         0.93675E+04   0.39465E+04   0.34849E+05   0.00000E+00
       0.00      44844.40         0.93514E+04   0.39401E+04   0.34787E+05   0.00000E+00
       0.00      44884.73         0.93398E+04   0.39356E+04   0.34741E+05   0.00000E+00
       0.00      44925.06         0.93312E+04   0.39323E+04   0.34707E+05   0.00000E+00
       0.00      44965.39         0.93246E+04   0.39299E+04   0.34680E+05   0.00000E+00
       0.00      45005.71         0.93198E+04   0.39282E+04   0.34660E+05   0.00000E+00
       0.00      45046.04         0.93175E+04   0.39276E+04   0.34650E+05   0.00000E+00
       0.00      45086.37         0.93186E+04   0.39283E+04   0.34652E+05   0.00000E+00
       0.00      45126.70         0.93244E+04   0.39310E+04   0.34672E+05   0.00000E+00
       0.00      45167.02         0.93356E+04   0.39360E+04   0.34712E+05   0.00000E+00
       0.00      45207.35         0.93527E+04   0.39434E+04   0.34774E+05   0.00000E+00
       0.00      45247.68         0.93756E+04   0.39532E+04   0.34858E+05   0.00000E+00
       0.00      45288.01         0.94036E+04   0.39651E+04   0.34961E+05   0.00000E+00
       0.00      45328.33         0.94350E+04   0.39785E+04   0.35077E+05   0.00000E+00
       0.00      45368.66         0.94673E+04   0.39923E+04   0.35197E+05   0.00000E+00
       0.00      45408.99         0.94970E+04   0.40050E+04   0.35306E+05   0.00000E+00
       0.00      45449.32         0.95202E+04   0.40150E+04   0.35391E+05   0.00000E+00
       0.00      45489.65         0.95331E+04   0.40206E+04   0.35437E+05   0.00000E+00
       0.00      45529.97         0.95317E+04   0.40202E+04   0.35431E+05   0.00000E+00
       0.00      45570.30         0.95125E+04   0.40124E+04   0.35358E+05   0.00000E+00
       0.00      45610.63         0.94735E+04   0.39962E+04   0.35211E+05   0.00000E+00
       0.00      45650.96         0.94141E+04   0.39714E+04   0.34989E+05   0.00000E+00
       0.00      45691.28         0.93358E+04   0.39386E+04   0.34696E+05   0.00000E+00
       0.00      45731.61         0.92429E+04   0.38996E+04   0.34349E+05   0.00000E+00
       0.00      45771.94         0.91408E+04   0.38568E+04   0.33968E+05   0.00000E+00
       0.00      45812.27         0.90360E+04   0.38129E+04   0.33577E+05   0.00000E+00
       0.00      45852.59         0.89344E+04   0.37703E+04   0.33198E+05   0.00000E+00
       0.00      45892.92         0.88406E+04   0.37309E+04   0.32848E+05   0.00000E+00
       0.00      45933.25         0.87564E+04   0.36956E+04   0.32534E+05   0.00000E+00
       0.00      45973.58         0.86815E+04   0.36642E+04   0.32254E+05   0.00000E+00
       0.00      46013.91         0.86131E+04   0.36355E+04   0.31999E+05   0.00000E+00
       0.00      46054.23         0.85472E+04   0.36078E+04   0.31753E+05   0.00000E+00
       0.00      46094.56         0.84788E+04   0.35791E+04   0.31498E+05   0.00000E+00
       0.00      46134.89         0.84040E+04   0.35476E+04   0.31220E+05   0.00000E+00
       0.00      46175.22         0.83198E+04   0.35121E+04   0.30907E+05   0.00000E+00
       0.00      46215.54         0.82255E+04   0.34724E+04   0.30556E+05   0.00000E+00
       0.00      46255.87         0.81221E+04   0.34288E+04   0.30171E+05   0.00000E+00
       0.00      46296.20         0.80118E+04   0.33824E+04   0.29760E+05   0.00000E+00
       0.00      46336.53         0.78978E+04   0.33344E+04   0.29336E+05   0.00000E+00
       0.00      46376.86         0.77834E+04   0.32863E+04   0.28910E+05   0.00000E+00
       0.00      46417.18         0.76713E+04   0.32391E+04   0.28493E+05   0.00000E+00
       0.00      46457.51         0.75638E+04   0.31940E+04   0.28092E+05   0.00000E+00
       0.00      46497.84         0.74624E+04   0.31514E+04   0.27714E+05   0.00000E+00
       0.00      46538.17         0.73674E+04   0.31115E+04   0.27359E+05   0.00000E+00
       0.00      46578.49         0.72784E+04   0.30742E+04   0.27027E+05   0.00000E+00
       0.00      46618.82         0.71945E+04   0.30390E+04   0.26714E+05   0.00000E+00
       0.00      46659.15         0.71144E+04   0.30054E+04   0.26415E+05   0.00000E+00
       0.00      46699.48         0.70370E+04   0.29729E+04   0.26126E+05   0.00000E+00
       0.00      46739.80         0.69615E+04   0.29413E+04   0.25844E+05   0.00000E+00
       0.00      46780.13         0.68874E+04   0.29102E+04   0.25568E+05   0.00000E+00
       0.00      46820.46         0.68150E+04   0.28798E+04   0.25298E+05   0.00000E+00
       0.00      46860.79         0.67446E+04   0.28502E+04   0.25035E+05   0.00000E+00
       0.00      46901.12         0.66769E+04   0.28218E+04   0.24783E+05   0.00000E+00
       0.00      46941.44         0.66123E+04   0.27947E+04   0.24542E+05   0.00000E+00
       0.00      46981.77         0.65515E+04   0.27691E+04   0.24315E+05   0.00000E+00
       0.00      47022.10         0.64944E+04   0.27452E+04   0.24102E+05   0.00000E+00
       0.00      47062.43         0.64408E+04   0.27227E+04   0.23902E+05   0.00000E+00
       0.00      47102.75         0.63903E+04   0.27016E+04   0.23713E+05   0.00000E+00
       0.00      47143.08         0.63420E+04   0.26814E+04   0.23533E+05   0.00000E+00
       0.00      47183.41         0.62954E+04   0.26618E+04   0.23358E+05   0.00000E+00
       0.00      47223.74         0.62493E+04   0.26426E+04   0.23186E+05   0.00000E+00
       0.00      47264.06         0.62036E+04   0.26234E+04   0.23016E+05   0.00000E+00
       0.00      47304.39         0.61579E+04   0.26042E+04   0.22845E+05   0.00000E+00
       0.00      47344.72         0.61119E+04   0.25850E+04   0.22673E+05   0.00000E+00
       0.00      47385.05         0.60659E+04   0.25657E+04   0.22501E+05   0.00000E+00
       0.00      47425.38         0.60199E+04   0.25464E+04   0.22330E+05   0.00000E+00
       0.00      47465.70         0.59743E+04   0.25272E+04   0.22160E+05   0.00000E+00
       0.00      47506.03         0.59293E+04   0.25083E+04   0.21992E+05   0.00000E+00
       0.00      47546.36         0.58851E+04   0.24897E+04   0.21827E+05   0.00000E+00
       0.00      47586.69         0.58414E+04   0.24713E+04   0.21665E+05   0.00000E+00
       0.00      47627.01         0.57981E+04   0.24531E+04   0.21503E+05   0.00000E+00
       0.00      47667.34         0.57544E+04   0.24347E+04   0.21341E+05   0.00000E+00
       0.00      47707.67         0.57097E+04   0.24160E+04   0.21174E+05   0.00000E+00
       0.00      47748.00         0.56632E+04   0.23964E+04   0.21001E+05   0.00000E+00
       0.00      47788.32         0.56139E+04   0.23757E+04   0.20817E+05   0.00000E+00
       0.00      47828.65         0.55611E+04   0.23535E+04   0.20620E+05   0.00000E+00
       0.00      47868.98         0.55042E+04   0.23295E+04   0.20409E+05   0.00000E+00
       0.00      47909.31         0.54432E+04   0.23038E+04   0.20182E+05   0.00000E+00
       0.00      47949.64         0.53783E+04   0.22765E+04   0.19940E+05   0.00000E+00
       0.00      47989.96         0.53103E+04   0.22479E+04   0.19687E+05   0.00000E+00
       0.00      48030.29         0.52405E+04   0.22184E+04   0.19427E+05   0.00000E+00
       0.00      48070.62         0.51699E+04   0.21887E+04   0.19165E+05   0.00000E+00
       0.00      48110.95         0.50998E+04   0.21592E+04   0.18904E+05   0.00000E+00
       0.00      48151.27         0.50311E+04   0.21302E+04   0.18649E+05   0.00000E+00
       0.00      48191.60         0.49643E+04   0.21021E+04   0.18400E+05   0.00000E+00
       0.00      48231.93         0.48994E+04   0.20747E+04   0.18159E+05   0.00000E+00
       0.00      48272.26         0.48363E+04   0.20481E+04   0.17924E+05   0.00000E+00
       0.00      48312.58         0.47744E+04   0.20221E+04   0.17694E+05   0.00000E+00
       0.00      48352.91         0.47132E+04   0.19962E+04   0.17466E+05   0.00000E+00
       0.00      48393.24         0.46521E+04   0.19705E+04   0.17239E+05   0.00000E+00
       0.00      48433.57         0.45909E+04   0.19447E+04   0.17011E+05   0.00000E+00
       0.00      48473.90         0.45292E+04   0.19186E+04   0.16782E+05   0.00000E+00
       0.00      48514.22         0.44673E+04   0.18925E+04   0.16552E+05   0.00000E+00
       0.00      48554.55         0.44055E+04   0.18664E+04   0.16322E+05   0.00000E+00
       0.00      48594.88         0.43440E+04   0.18405E+04   0.16094E+05   0.00000E+00
       0.00      48635.21         0.42835E+04   0.18149E+04   0.15869E+05   0.00000E+00
       0.00      48675.53         0.42241E+04   0.17899E+04   0.15648E+05   0.00000E+00
       0.00      48715.86         0.41662E+04   0.17655E+04   0.15433E+05   0.00000E+00
       0.00      48756.19         0.41100E+04   0.17418E+04   0.15224E+05   0.00000E+00
       0.00      48796.52         0.40555E+04   0.17188E+04   0.15021E+05   0.00000E+00
       0.00      48836.84         0.40025E+04   0.16964E+04   0.14825E+05   0.00000E+00
       0.00      48877.17         0.39508E+04   0.16747E+04   0.14633E+05   0.00000E+00
       0.00      48917.50         0.39003E+04   0.16534E+04   0.14445E+05   0.00000E+00
       0.00      48957.83         0.38507E+04   0.16324E+04   0.14260E+05   0.00000E+00
       0.00      48998.16         0.38018E+04   0.16118E+04   0.14079E+05   0.00000E+00
       0.00      49038.48         0.37537E+04   0.15915E+04   0.13900E+05   0.00000E+00
       0.00      49078.81         0.37063E+04   0.15715E+04   0.13724E+05   0.00000E+00
       0.00      49119.14         0.36597E+04   0.15518E+04   0.13551E+05   0.00000E+00
       0.00      49159.47         0.36141E+04   0.15326E+04   0.13381E+05   0.00000E+00
       0.00      49199.79         0.35695E+04   0.15138E+04   0.13216E+05   0.00000E+00
       0.00      49240.12         0.35262E+04   0.14954E+04   0.13055E+05   0.00000E+00
       0.00      49280.45         0.34840E+04   0.14776E+04   0.12898E+05   0.00000E+00
       0.00      49320.78         0.34430E+04   0.14603E+04   0.12746E+05   0.00000E+00
       0.00      49361.10         0.34032E+04   0.14435E+04   0.12598E+05   0.00000E+00
       0.00      49401.43         0.33644E+04   0.14271E+04   0.12454E+05   0.00000E+00
       0.00      49441.76         0.33264E+04   0.14111E+04   0.12313E+05   0.00000E+00
       0.00      49482.09         0.32890E+04   0.13953E+04   0.12174E+05   0.00000E+00
       0.00      49522.42         0.32522E+04   0.13797E+04   0.12037E+05   0.00000E+00
       0.00      49562.74         0.32158E+04   0.13644E+04   0.11902E+05   0.00000E+00
       0.00      49603.07         0.31797E+04   0.13491E+04   0.11768E+05   0.00000E+00
       0.00      49643.40         0.31439E+04   0.13340E+04   0.11635E+05   0.00000E+00
       0.00      49683.73         0.31085E+04   0.13191E+04   0.11504E+05   0.00000E+00
       0.00      49724.05         0.30735E+04   0.13042E+04   0.11374E+05   0.00000E+00
       0.00      49764.38         0.30389E+04   0.12896E+04   0.11245E+05   0.00000E+00
       0.00      49804.71         0.30047E+04   0.12751E+04   0.11119E+05   0.00000E+00
       0.00      49845.04         0.29709E+04   0.12608E+04   0.10993E+05   0.00000E+00
       0.00      49885.36         0.29373E+04   0.12466E+04   0.10869E+05   0.00000E+00
       0.00      49925.69         0.29040E+04   0.12325E+04   0.10745E+05   0.00000E+00
       0.00      49966.02         0.28706E+04   0.12184E+04   0.10621E+05   0.00000E+00
       0.00      50006.35         0.28371E+04   0.12043E+04   0.10497E+05   0.00000E+00
       0.00      50046.68         0.28034E+04   0.11900E+04   0.10372E+05   0.00000E+00
       0.00      50087.00         0.27694E+04   0.11756E+04   0.10246E+05   0.00000E+00
       0.00      50127.33         0.27350E+04   0.11611E+04   0.10118E+05   0.00000E+00
       0.00      50167.66         0.27003E+04   0.11464E+04   0.99897E+04   0.00000E+00
       0.00      50207.99         0.26654E+04   0.11316E+04   0.98600E+04   0.00000E+00
       0.00      50248.31         0.26303E+04   0.11167E+04   0.97300E+04   0.00000E+00
       0.00      50288.64         0.25953E+04   0.11019E+04   0.96003E+04   0.00000E+00
       0.00      50328.97         0.25605E+04   0.10872E+04   0.94714E+04   0.00000E+00
       0.00      50369.30         0.25262E+04   0.10727E+04   0.93439E+04   0.00000E+00
       0.00      50409.62         0.24923E+04   0.10583E+04   0.92183E+04   0.00000E+00
       0.00      50449.95         0.24589E+04   0.10442E+04   0.90946E+04   0.00000E+00
       0.00      50490.28         0.24261E+04   0.10303E+04   0.89731E+04   0.00000E+00
       0.00      50530.61         0.23939E+04   0.10167E+04   0.88536E+04   0.00000E+00
       0.00      50570.94         0.23622E+04   0.10032E+04   0.87359E+04   0.00000E+00
       0.00      50611.26         0.23309E+04   0.98999E+03   0.86199E+04   0.00000E+00
       0.00      50651.59         0.23000E+04   0.97690E+03   0.85054E+04   0.00000E+00
       0.00      50691.92         0.22694E+04   0.96397E+03   0.83922E+04   0.00000E+00
       0.00      50732.25         0.22392E+04   0.95118E+03   0.82803E+04   0.00000E+00
       0.00      50772.57         0.22094E+04   0.93856E+03   0.81699E+04   0.00000E+00
       0.00      50812.90         0.21800E+04   0.92610E+03   0.80609E+04   0.00000E+00
       0.00      50853.23         0.21511E+04   0.91383E+03   0.79537E+04   0.00000E+00
       0.00      50893.56         0.21226E+04   0.90177E+03   0.78482E+04   0.00000E+00
       0.00      50933.89         0.20947E+04   0.88994E+03   0.77447E+04   0.00000E+00
       0.00      50974.21         0.20673E+04   0.87834E+03   0.76433E+04   0.00000E+00
       0.00      51014.54         0.20405E+04   0.86699E+03   0.75441E+04   0.00000E+00
       0.00      51054.87         0.20143E+04   0.85587E+03   0.74469E+04   0.00000E+00
       0.00      51095.20         0.19886E+04   0.84497E+03   0.73516E+04   0.00000E+00
       0.00      51135.52         0.19633E+04   0.83429E+03   0.72582E+04   0.00000E+00
       0.00      51175.85         0.19386E+04   0.82379E+03   0.71664E+04   0.00000E+00
       0.00      51216.18         0.19142E+04   0.81346E+03   0.70762E+04   0.00000E+00
       0.00      51256.51         0.18902E+04   0.80330E+03   0.69875E+04   0.00000E+00
       0.00      51296.83         0.18666E+04   0.79330E+03   0.69001E+04   0.00000E+00
       0.00      51337.16         0.18434E+04   0.78345E+03   0.68141E+04   0.00000E+00
       0.00      51377.49         0.18206E+04   0.77376E+03   0.67295E+04   0.00000E+00
       0.00      51417.82         0.17981E+04   0.76423E+03   0.66463E+04   0.00000E+00
       0.00      51458.15         0.17760E+04   0.75487E+03   0.65646E+04   0.00000E+00
       0.00      51498.47         0.17544E+04   0.74569E+03   0.64845E+04   0.00000E+00
       0.00      51538.80         0.17332E+04   0.73669E+03   0.64060E+04   0.00000E+00
       0.00      51579.13         0.17124E+04   0.72786E+03   0.63290E+04   0.00000E+00
       0.00      51619.46         0.16920E+04   0.71921E+03   0.62535E+04   0.00000E+00
       0.00      51659.78         0.16720E+04   0.71072E+03   0.61795E+04   0.00000E+00
       0.00      51700.11         0.16523E+04   0.70239E+03   0.61068E+04   0.00000E+00
       0.00      51740.44         0.16330E+04   0.69420E+03   0.60354E+04   0.00000E+00
       0.00      51780.77         0.16140E+04   0.68614E+03   0.59651E+04   0.00000E+00
       0.00      51821.09         0.15953E+04   0.67819E+03   0.58959E+04   0.00000E+00
       0.00      51861.42         0.15769E+04   0.67037E+03   0.58276E+04   0.00000E+00
       0.00      51901.75         0.15587E+04   0.66265E+03   0.57604E+04   0.00000E+00
       0.00      51942.08         0.15408E+04   0.65505E+03   0.56942E+04   0.00000E+00
       0.00      51982.41         0.15232E+04   0.64756E+03   0.56289E+04   0.00000E+00
       0.00      52022.73         0.15058E+04   0.64018E+03   0.55647E+04   0.00000E+00
       0.00      52063.06         0.14887E+04   0.63291E+03   0.55014E+04   0.00000E+00
       0.00      52103.39         0.14718E+04   0.62574E+03   0.54390E+04   0.00000E+00
       0.00      52143.72         0.14551E+04   0.61866E+03   0.53774E+04   0.00000E+00
       0.00      52184.04         0.14387E+04   0.61166E+03   0.53164E+04   0.00000E+00
       0.00      52224.37         0.14223E+04   0.60472E+03   0.52560E+04   0.00000E+00
       0.00      52264.70         0.14061E+04   0.59784E+03   0.51961E+04   0.00000E+00
       0.00      52305.03         0.13900E+04   0.59100E+03   0.51365E+04   0.00000E+00
       0.00      52345.35         0.13740E+04   0.58421E+03   0.50774E+04   0.00000E+00
       0.00      52385.68         0.13581E+04   0.57746E+03   0.50187E+04   0.00000E+00
       0.00      52426.01         0.13424E+04   0.57076E+03   0.49604E+04   0.00000E+00
       0.00      52466.34         0.13267E+04   0.56411E+03   0.49025E+04   0.00000E+00
       0.00      52506.67         0.13112E+04   0.55753E+03   0.48453E+04   0.00000E+00
       0.00      52546.99         0.12959E+04   0.55102E+03   0.47886E+04   0.00000E+00
       0.00      52587.32         0.12808E+04   0.54460E+03   0.47327E+04   0.00000E+00
       0.00      52627.65         0.12659E+04   0.53826E+03   0.46776E+04   0.00000E+00
       0.00      52667.98         0.12512E+04   0.53201E+03   0.46232E+04   0.00000E+00
       0.00      52708.30         0.12367E+04   0.52586E+03   0.45697E+04   0.00000E+00
       0.00      52748.63         0.12224E+04   0.51980E+03   0.45170E+04   0.00000E+00
       0.00      52788.96         0.12084E+04   0.51383E+03   0.44650E+04   0.00000E+00
       0.00      52829.29         0.11945E+04   0.50795E+03   0.44139E+04   0.00000E+00
       0.00      52869.61         0.11809E+04   0.50215E+03   0.43635E+04   0.00000E+00
       0.00      52909.94         0.11675E+04   0.49644E+03   0.43138E+04   0.00000E+00
       0.00      52950.27         0.11542E+04   0.49081E+03   0.42648E+04   0.00000E+00
       0.00      52990.60         0.11412E+04   0.48526E+03   0.42166E+04   0.00000E+00
       0.00      53030.93         0.11283E+04   0.47980E+03   0.41691E+04   0.00000E+00
       0.00      53071.25         0.11157E+04   0.47441E+03   0.41223E+04   0.00000E+00
       0.00      53111.58         0.11032E+04   0.46911E+03   0.40762E+04   0.00000E+00
       0.00      53151.91         0.10909E+04   0.46390E+03   0.40309E+04   0.00000E+00
       0.00      53192.24         0.10789E+04   0.45877E+03   0.39864E+04   0.00000E+00
       0.00      53232.56         0.10670E+04   0.45373E+03   0.39426E+04   0.00000E+00
       0.00      53272.89         0.10554E+04   0.44878E+03   0.38995E+04   0.00000E+00
       0.00      53313.22         0.10439E+04   0.44391E+03   0.38573E+04   0.00000E+00
       0.00      53353.55         0.10327E+04   0.43913E+03   0.38157E+04   0.00000E+00
       0.00      53393.87         0.10216E+04   0.43443E+03   0.37748E+04   0.00000E+00
       0.00      53434.20         0.10107E+04   0.42980E+03   0.37346E+04   0.00000E+00
       0.00      53474.53         0.10000E+04   0.42524E+03   0.36951E+04   0.00000E+00
       0.00      53514.86         0.98949E+03   0.42076E+03   0.36561E+04   0.00000E+00
       0.00      53555.19         0.97911E+03   0.41634E+03   0.36178E+04   0.00000E+00
       0.00      53595.51         0.96889E+03   0.41200E+03   0.35800E+04   0.00000E+00
       0.00      53635.84         0.95883E+03   0.40772E+03   0.35429E+04   0.00000E+00
       0.00      53676.17         0.94893E+03   0.40351E+03   0.35063E+04   0.00000E+00
       0.00      53716.50         0.93919E+03   0.39936E+03   0.34703E+04   0.00000E+00
       0.00      53756.82         0.92961E+03   0.39528E+03   0.34350E+04   0.00000E+00
       0.00      53797.15         0.92019E+03   0.39127E+03   0.34002E+04   0.00000E+00
       0.00      53837.48         0.91092E+03   0.38733E+03   0.33659E+04   0.00000E+00
       0.00      53877.81         0.90181E+03   0.38345E+03   0.33323E+04   0.00000E+00
       0.00      53918.13         0.89284E+03   0.37963E+03   0.32992E+04   0.00000E+00
       0.00      53958.46         0.88402E+03   0.37588E+03   0.32666E+04   0.00000E+00
       0.00      53998.79         0.87534E+03   0.37219E+03   0.32345E+04   0.00000E+00
       0.00      54039.12         0.86678E+03   0.36855E+03   0.32030E+04   0.00000E+00
       0.00      54079.45         0.85836E+03   0.36496E+03   0.31719E+04   0.00000E+00
       0.00      54119.77         0.85006E+03   0.36143E+03   0.31412E+04   0.00000E+00
       0.00      54160.10         0.84189E+03   0.35795E+03   0.31111E+04   0.00000E+00
       0.00      54200.43         0.83384E+03   0.35452E+03   0.30813E+04   0.00000E+00
       0.00      54240.76         0.82590E+03   0.35114E+03   0.30520E+04   0.00000E+00
       0.00      54281.08         0.81809E+03   0.34781E+03   0.30232E+04   0.00000E+00
       0.00      54321.41         0.81038E+03   0.34453E+03   0.29948E+04   0.00000E+00
       0.00      54361.74         0.80279E+03   0.34130E+03   0.29667E+04   0.00000E+00
       0.00      54402.07         0.79530E+03   0.33811E+03   0.29391E+04   0.00000E+00
       0.00      54442.39         0.78790E+03   0.33496E+03   0.29118E+04   0.00000E+00
       0.00      54482.72         0.78059E+03   0.33185E+03   0.28848E+04   0.00000E+00
       0.00      54523.05         0.77337E+03   0.32877E+03   0.28581E+04   0.00000E+00
       0.00      54563.38         0.76623E+03   0.32573E+03   0.28317E+04   0.00000E+00
       0.00      54603.71         0.75916E+03   0.32272E+03   0.28057E+04   0.00000E+00
       0.00      54644.03         0.75218E+03   0.31975E+03   0.27799E+04   0.00000E+00
       0.00      54684.36         0.74528E+03   0.31681E+03   0.27544E+04   0.00000E+00
       0.00      54724.69         0.73846E+03   0.31391E+03   0.27292E+04   0.00000E+00
       0.00      54765.02         0.73172E+03   0.31104E+03   0.27044E+04   0.00000E+00
       0.00      54805.34         0.72507E+03   0.30821E+03   0.26798E+04   0.00000E+00
       0.00      54845.67         0.71851E+03   0.30542E+03   0.26556E+04   0.00000E+00
       0.00      54886.00         0.71204E+03   0.30266E+03   0.26317E+04   0.00000E+00
       0.00      54926.33         0.70566E+03   0.29994E+03   0.26082E+04   0.00000E+00
       0.00      54966.66         0.69937E+03   0.29726E+03   0.25850E+04   0.00000E+00
       0.00      55006.98         0.69316E+03   0.29462E+03   0.25620E+04   0.00000E+00
       0.00      55047.31         0.68704E+03   0.29201E+03   0.25395E+04   0.00000E+00
       0.00      55087.64         0.68100E+03   0.28944E+03   0.25172E+04   0.00000E+00
       0.00      55127.97         0.67505E+03   0.28691E+03   0.24952E+04   0.00000E+00
       0.00      55168.29         0.66918E+03   0.28441E+03   0.24735E+04   0.00000E+00
       0.00      55208.62         0.66339E+03   0.28194E+03   0.24522E+04   0.00000E+00
       0.00      55248.95         0.65768E+03   0.27951E+03   0.24311E+04   0.00000E+00
       0.00      55289.28         0.65205E+03   0.27711E+03   0.24103E+04   0.00000E+00
       0.00      55329.60         0.64650E+03   0.27475E+03   0.23898E+04   0.00000E+00
       0.00      55369.93         0.64102E+03   0.27242E+03   0.23696E+04   0.00000E+00
       0.00      55410.26         0.63563E+03   0.27012E+03   0.23497E+04   0.00000E+00
       0.00      55450.59         0.63031E+03   0.26785E+03   0.23301E+04   0.00000E+00
       0.00      55490.92         0.62507E+03   0.26562E+03   0.23107E+04   0.00000E+00
       0.00      55531.24         0.61990E+03   0.26342E+03   0.22916E+04   0.00000E+00
       0.00      55571.57         0.61481E+03   0.26125E+03   0.22729E+04   0.00000E+00
       0.00      55611.90         0.60979E+03   0.25912E+03   0.22543E+04   0.00000E+00
       0.00      55652.23         0.60485E+03   0.25701E+03   0.22361E+04   0.00000E+00
       0.00      55692.55         0.59997E+03   0.25493E+03   0.22181E+04   0.00000E+00
       0.00      55732.88         0.59517E+03   0.25289E+03   0.22004E+04   0.00000E+00
       0.00      55773.21         0.59042E+03   0.25087E+03   0.21829E+04   0.00000E+00
       0.00      55813.54         0.58575E+03   0.24888E+03   0.21656E+04   0.00000E+00
       0.00      55853.86         0.58114E+03   0.24691E+03   0.21486E+04   0.00000E+00
       0.00      55894.19         0.57659E+03   0.24497E+03   0.21318E+04   0.00000E+00
       0.00      55934.52         0.57210E+03   0.24306E+03   0.21153E+04   0.00000E+00
       0.00      55974.85         0.56768E+03   0.24118E+03   0.20989E+04   0.00000E+00
       0.00      56015.18         0.56332E+03   0.23932E+03   0.20828E+04   0.00000E+00
       0.00      56055.50         0.55902E+03   0.23749E+03   0.20670E+04   0.00000E+00
       0.00      56095.83         0.55478E+03   0.23568E+03   0.20513E+04   0.00000E+00
       0.00      56136.16         0.55059E+03   0.23390E+03   0.20359E+04   0.00000E+00
       0.00      56176.49         0.54647E+03   0.23214E+03   0.20206E+04   0.00000E+00
       0.00      56216.81         0.54240E+03   0.23041E+03   0.20056E+04   0.00000E+00
       0.00      56257.14         0.53838E+03   0.22870E+03   0.19908E+04   0.00000E+00
       0.00      56297.47         0.53442E+03   0.22701E+03   0.19762E+04   0.00000E+00
       0.00      56337.80         0.53051E+03   0.22535E+03   0.19617E+04   0.00000E+00
       0.00      56378.12         0.52665E+03   0.22370E+03   0.19475E+04   0.00000E+00
       0.00      56418.45         0.52284E+03   0.22208E+03   0.19334E+04   0.00000E+00
       0.00      56458.78         0.51908E+03   0.22048E+03   0.19196E+04   0.00000E+00
       0.00      56499.11         0.51536E+03   0.21890E+03   0.19059E+04   0.00000E+00
       0.00      56539.44         0.51170E+03   0.21733E+03   0.18924E+04   0.00000E+00
       0.00      56579.76         0.50808E+03   0.21579E+03   0.18790E+04   0.00000E+00
       0.00      56620.09         0.50451E+03   0.21427E+03   0.18658E+04   0.00000E+00
       0.00      56660.42         0.50098E+03   0.21277E+03   0.18528E+04   0.00000E+00
       0.00      56700.75         0.49750E+03   0.21128E+03   0.18399E+04   0.00000E+00
       0.00      56741.07         0.49405E+03   0.20982E+03   0.18272E+04   0.00000E+00
       0.00      56781.40         0.49065E+03   0.20837E+03   0.18147E+04   0.00000E+00
       0.00      56821.73         0.48728E+03   0.20693E+03   0.18022E+04   0.00000E+00
       0.00      56862.06         0.48395E+03   0.20551E+03   0.17899E+04   0.00000E+00
       0.00      56902.38         0.48066E+03   0.20411E+03   0.17778E+04   0.00000E+00
       0.00      56942.71         0.47740E+03   0.20273E+03   0.17658E+04   0.00000E+00
       0.00      56983.04         0.47419E+03   0.20136E+03   0.17539E+04   0.00000E+00
       0.00      57023.37         0.47101E+03   0.20000E+03   0.17422E+04   0.00000E+00
       0.00      57063.70         0.46787E+03   0.19867E+03   0.17306E+04   0.00000E+00
       0.00      57104.02         0.46477E+03   0.19734E+03   0.17191E+04   0.00000E+00
       0.00      57144.35         0.46170E+03   0.19604E+03   0.17078E+04   0.00000E+00
       0.00      57184.68         0.45867E+03   0.19475E+03   0.16967E+04   0.00000E+00
       0.00      57225.01         0.45568E+03   0.19348E+03   0.16856E+04   0.00000E+00
       0.00      57265.33         0.45273E+03   0.19222E+03   0.16747E+04   0.00000E+00
       0.00      57305.66         0.44980E+03   0.19097E+03   0.16639E+04   0.00000E+00
       0.00      57345.99         0.44692E+03   0.18974E+03   0.16533E+04   0.00000E+00
       0.00      57386.32         0.44407E+03   0.18853E+03   0.16427E+04   0.00000E+00
       0.00      57426.64         0.44125E+03   0.18733E+03   0.16323E+04   0.00000E+00
       0.00      57466.97         0.43846E+03   0.18614E+03   0.16221E+04   0.00000E+00
       0.00      57507.30         0.43571E+03   0.18497E+03   0.16119E+04   0.00000E+00
       0.00      57547.63         0.43299E+03   0.18381E+03   0.16019E+04   0.00000E+00
       0.00      57587.96         0.43031E+03   0.18267E+03   0.15920E+04   0.00000E+00
       0.00      57628.28         0.42765E+03   0.18154E+03   0.15822E+04   0.00000E+00
       0.00      57668.61         0.42503E+03   0.18042E+03   0.15725E+04   0.00000E+00
       0.00      57708.94         0.42244E+03   0.17932E+03   0.15629E+04   0.00000E+00
       0.00      57749.27         0.41988E+03   0.17823E+03   0.15535E+04   0.00000E+00
       0.00      57789.59         0.41735E+03   0.17715E+03   0.15441E+04   0.00000E+00
       0.00      57829.92         0.41485E+03   0.17609E+03   0.15349E+04   0.00000E+00
       0.00      57870.25         0.41238E+03   0.17504E+03   0.15258E+04   0.00000E+00
       0.00      57910.58         0.40994E+03   0.17400E+03   0.15168E+04   0.00000E+00
       0.00      57950.90         0.40752E+03   0.17297E+03   0.15079E+04   0.00000E+00
       0.00      57991.23         0.40514E+03   0.17195E+03   0.14990E+04   0.00000E+00
       0.00      58031.56         0.40278E+03   0.17095E+03   0.14903E+04   0.00000E+00
       0.00      58071.89         0.40045E+03   0.16996E+03   0.14817E+04   0.00000E+00
       0.00      58112.22         0.39815E+03   0.16898E+03   0.14732E+04   0.00000E+00
       0.00      58152.54         0.39587E+03   0.16801E+03   0.14648E+04   0.00000E+00
       0.00      58192.87         0.39362E+03   0.16705E+03   0.14565E+04   0.00000E+00
       0.00      58233.20         0.39140E+03   0.16610E+03   0.14483E+04   0.00000E+00
       0.00      58273.53         0.38920E+03   0.16517E+03   0.14402E+04   0.00000E+00
       0.00      58313.85         0.38702E+03   0.16424E+03   0.14322E+04   0.00000E+00
       0.00      58354.18         0.38487E+03   0.16333E+03   0.14242E+04   0.00000E+00
       0.00      58394.51         0.38275E+03   0.16242E+03   0.14164E+04   0.00000E+00
       0.00      58434.84         0.38065E+03   0.16153E+03   0.14086E+04   0.00000E+00
       0.00      58475.17         0.37857E+03   0.16064E+03   0.14010E+04   0.00000E+00
       0.00      58515.49         0.37651E+03   0.15977E+03   0.13934E+04   0.00000E+00
       0.00      58555.82         0.37448E+03   0.15890E+03   0.13859E+04   0.00000E+00
       0.00      58596.15         0.37247E+03   0.15805E+03   0.13784E+04   0.00000E+00
       0.00      58636.48         0.37048E+03   0.15720E+03   0.13711E+04   0.00000E+00
       0.00      58676.80         0.36852E+03   0.15636E+03   0.13638E+04   0.00000E+00
       0.00      58717.13         0.36657E+03   0.15554E+03   0.13567E+04   0.00000E+00
       0.00      58757.46         0.36465E+03   0.15472E+03   0.13496E+04   0.00000E+00
       0.00      58797.79         0.36275E+03   0.15391E+03   0.13425E+04   0.00000E+00
       0.00      58838.11         0.36086E+03   0.15311E+03   0.13356E+04   0.00000E+00
       0.00      58878.44         0.35900E+03   0.15231E+03   0.13287E+04   0.00000E+00
       0.00      58918.77         0.35716E+03   0.15153E+03   0.13219E+04   0.00000E+00
       0.00      58959.10         0.35533E+03   0.15075E+03   0.13152E+04   0.00000E+00
       0.00      58999.43         0.35353E+03   0.14998E+03   0.13085E+04   0.00000E+00
       0.00      59039.75         0.35174E+03   0.14922E+03   0.13019E+04   0.00000E+00
       0.00      59080.08         0.34997E+03   0.14847E+03   0.12954E+04   0.00000E+00
       0.00      59120.41         0.34822E+03   0.14773E+03   0.12889E+04   0.00000E+00
       0.00      59160.74         0.34649E+03   0.14699E+03   0.12825E+04   0.00000E+00
       0.00      59201.06         0.34477E+03   0.14626E+03   0.12762E+04   0.00000E+00
       0.00      59241.39         0.34308E+03   0.14554E+03   0.12699E+04   0.00000E+00
       0.00      59281.72         0.34140E+03   0.14482E+03   0.12637E+04   0.00000E+00
       0.00      59322.05         0.33973E+03   0.14411E+03   0.12576E+04   0.00000E+00
       0.00      59362.37         0.33809E+03   0.14341E+03   0.12515E+04   0.00000E+00
       0.00      59402.70         0.33646E+03   0.14272E+03   0.12455E+04   0.00000E+00
       0.00      59443.03         0.33485E+03   0.14204E+03   0.12395E+04   0.00000E+00
       0.00      59483.36         0.33325E+03   0.14136E+03   0.12336E+04   0.00000E+00
       0.00      59523.69         0.33167E+03   0.14069E+03   0.12278E+04   0.00000E+00
       0.00      59564.01         0.33011E+03   0.14002E+03   0.12220E+04   0.00000E+00
       0.00      59604.34         0.32856E+03   0.13936E+03   0.12163E+04   0.00000E+00
       0.00      59644.67         0.32703E+03   0.13871E+03   0.12106E+04   0.00000E+00
       0.00      59685.00         0.32551E+03   0.13806E+03   0.12050E+04   0.00000E+00
       0.00      59725.32         0.32401E+03   0.13743E+03   0.11995E+04   0.00000E+00
       0.00      59765.65         0.32253E+03   0.13679E+03   0.11940E+04   0.00000E+00
       0.00      59805.98         0.32106E+03   0.13617E+03   0.11886E+04   0.00000E+00
       0.00      59846.31         0.31960E+03   0.13555E+03   0.11832E+04   0.00000E+00
       0.00      59886.63         0.31816E+03   0.13493E+03   0.11779E+04   0.00000E+00
       0.00      59926.96         0.31673E+03   0.13433E+03   0.11726E+04   0.00000E+00
       0.00      59967.29         0.31532E+03   0.13373E+03   0.11674E+04   0.00000E+00
       0.00      60007.62         0.31392E+03   0.13313E+03   0.11622E+04   0.00000E+00
       0.00      60047.95         0.31254E+03   0.13254E+03   0.11571E+04   0.00000E+00
       0.00      60088.27         0.31117E+03   0.13196E+03   0.11520E+04   0.00000E+00
       0.00      60128.60         0.30981E+03   0.13138E+03   0.11470E+04   0.00000E+00
       0.00      60168.93         0.30847E+03   0.13081E+03   0.11421E+04   0.00000E+00
       0.00      60209.26         0.30713E+03   0.13025E+03   0.11371E+04   0.00000E+00
       0.00      60249.58         0.30582E+03   0.12969E+03   0.11323E+04   0.00000E+00
       0.00      60289.91         0.30451E+03   0.12913E+03   0.11275E+04   0.00000E+00
       0.00      60330.24         0.30322E+03   0.12858E+03   0.11227E+04   0.00000E+00
       0.00      60370.57         0.30194E+03   0.12804E+03   0.11180E+04   0.00000E+00
       0.00      60410.89         0.30068E+03   0.12750E+03   0.11133E+04   0.00000E+00
       0.00      60451.22         0.29942E+03   0.12696E+03   0.11087E+04   0.00000E+00
       0.00      60491.55         0.29818E+03   0.12644E+03   0.11041E+04   0.00000E+00
       0.00      60531.88         0.29695E+03   0.12591E+03   0.10995E+04   0.00000E+00
       0.00      60572.21         0.29573E+03   0.12540E+03   0.10950E+04   0.00000E+00
       0.00      60612.53         0.29453E+03   0.12488E+03   0.10906E+04   0.00000E+00
       0.00      60652.86         0.29333E+03   0.12437E+03   0.10861E+04   0.00000E+00
       0.00      60693.19         0.29215E+03   0.12387E+03   0.10818E+04   0.00000E+00
       0.00      60733.52         0.29097E+03   0.12337E+03   0.10774E+04   0.00000E+00
       0.00      60773.84         0.28981E+03   0.12288E+03   0.10732E+04   0.00000E+00
       0.00      60814.17         0.28866E+03   0.12239E+03   0.10689E+04   0.00000E+00
       0.00      60854.50         0.28753E+03   0.12191E+03   0.10647E+04   0.00000E+00
       0.00      60894.83         0.28640E+03   0.12143E+03   0.10605E+04   0.00000E+00
       0.00      60935.15         0.28528E+03   0.12095E+03   0.10564E+04   0.00000E+00
       0.00      60975.48         0.28417E+03   0.12048E+03   0.10523E+04   0.00000E+00
       0.00      61015.81         0.28308E+03   0.12001E+03   0.10483E+04   0.00000E+00
       0.00      61056.14         0.28199E+03   0.11955E+03   0.10442E+04   0.00000E+00
       0.00      61096.47         0.28091E+03   0.11909E+03   0.10403E+04   0.00000E+00
       0.00      61136.79         0.27985E+03   0.11864E+03   0.10363E+04   0.00000E+00
       0.00      61177.12         0.27879E+03   0.11819E+03   0.10324E+04   0.00000E+00
       0.00      61217.45         0.27774E+03   0.11775E+03   0.10286E+04   0.00000E+00
       0.00      61257.78         0.27671E+03   0.11731E+03   0.10247E+04   0.00000E+00
       0.00      61298.10         0.27568E+03   0.11687E+03   0.10209E+04   0.00000E+00
       0.00      61338.43         0.27466E+03   0.11644E+03   0.10172E+04   0.00000E+00
       0.00      61378.76         0.27365E+03   0.11601E+03   0.10134E+04   0.00000E+00
       0.00      61419.09         0.27265E+03   0.11558E+03   0.10097E+04   0.00000E+00
       0.00      61459.41         0.27166E+03   0.11516E+03   0.10061E+04   0.00000E+00
       0.00      61499.74         0.27068E+03   0.11474E+03   0.10025E+04   0.00000E+00
       0.00      61540.07         0.26971E+03   0.11433E+03   0.99886E+03   0.00000E+00
       0.00      61580.40         0.26874E+03   0.11392E+03   0.99530E+03   0.00000E+00
       0.00      61620.73         0.26779E+03   0.11351E+03   0.99177E+03   0.00000E+00
       0.00      61661.05         0.26684E+03   0.11311E+03   0.98827E+03   0.00000E+00
       0.00      61701.38         0.26591E+03   0.11271E+03   0.98481E+03   0.00000E+00
       0.00      61741.71         0.26498E+03   0.11232E+03   0.98138E+03   0.00000E+00
       0.00      61782.04         0.26406E+03   0.11193E+03   0.97797E+03   0.00000E+00
       0.00      61822.36         0.26314E+03   0.11154E+03   0.97460E+03   0.00000E+00
       0.00      61862.69         0.26224E+03   0.11115E+03   0.97126E+03   0.00000E+00
       0.00      61903.02         0.26134E+03   0.11077E+03   0.96795E+03   0.00000E+00
       0.00      61943.35         0.26046E+03   0.11040E+03   0.96467E+03   0.00000E+00
       0.00      61983.67         0.25958E+03   0.11002E+03   0.96142E+03   0.00000E+00
       0.00      62024.00         0.25870E+03   0.10965E+03   0.95820E+03   0.00000E+00
       0.00      62064.33         0.25784E+03   0.10928E+03   0.95500E+03   0.00000E+00
       0.00      62104.66         0.25699E+03   0.10892E+03   0.95184E+03   0.00000E+00
       0.00      62144.99         0.25614E+03   0.10856E+03   0.94871E+03   0.00000E+00
       0.00      62185.31         0.25530E+03   0.10820E+03   0.94560E+03   0.00000E+00
       0.00      62225.64         0.25446E+03   0.10785E+03   0.94251E+03   0.00000E+00
       0.00      62265.97         0.25364E+03   0.10750E+03   0.93946E+03   0.00000E+00
       0.00      62306.30         0.25282E+03   0.10715E+03   0.93644E+03   0.00000E+00
       0.00      62346.62         0.25201E+03   0.10681E+03   0.93344E+03   0.00000E+00
       0.00      62386.95         0.25120E+03   0.10646E+03   0.93047E+03   0.00000E+00
       0.00      62427.28         0.25041E+03   0.10613E+03   0.92753E+03   0.00000E+00
       0.00      62467.61         0.24962E+03   0.10579E+03   0.92461E+03   0.00000E+00
       0.00      62507.93         0.24884E+03   0.10546E+03   0.92172E+03   0.00000E+00
       0.00      62548.26         0.24806E+03   0.10513E+03   0.91885E+03   0.00000E+00
       0.00      62588.59         0.24729E+03   0.10480E+03   0.91601E+03   0.00000E+00
       0.00      62628.92         0.24653E+03   0.10448E+03   0.91320E+03   0.00000E+00
       0.00      62669.25         0.24577E+03   0.10416E+03   0.91041E+03   0.00000E+00
       0.00      62709.57         0.24503E+03   0.10384E+03   0.90764E+03   0.00000E+00
       0.00      62749.90         0.24429E+03   0.10352E+03   0.90490E+03   0.00000E+00
       0.00      62790.23         0.24355E+03   0.10321E+03   0.90218E+03   0.00000E+00
       0.00      62830.56         0.24282E+03   0.10290E+03   0.89949E+03   0.00000E+00
       0.00      62870.88         0.24210E+03   0.10259E+03   0.89682E+03   0.00000E+00
       0.00      62911.21         0.24138E+03   0.10229E+03   0.89418E+03   0.00000E+00
       0.00      62951.54         0.24067E+03   0.10199E+03   0.89155E+03   0.00000E+00
       0.00      62991.87         0.23997E+03   0.10169E+03   0.88896E+03   0.00000E+00
       0.00      63032.20         0.23928E+03   0.10139E+03   0.88638E+03   0.00000E+00
       0.00      63072.52         0.23858E+03   0.10110E+03   0.88383E+03   0.00000E+00
       0.00      63112.85         0.23790E+03   0.10081E+03   0.88130E+03   0.00000E+00
       0.00      63153.18         0.23722E+03   0.10052E+03   0.87879E+03   0.00000E+00
       0.00      63193.51         0.23655E+03   0.10023E+03   0.87630E+03   0.00000E+00
       0.00      63233.83         0.23588E+03   0.99952E+02   0.87384E+03   0.00000E+00
       0.00      63274.16         0.23522E+03   0.99671E+02   0.87140E+03   0.00000E+00
       0.00      63314.49         0.23457E+03   0.99392E+02   0.86898E+03   0.00000E+00
       0.00      63354.82         0.23392E+03   0.99116E+02   0.86657E+03   0.00000E+00
       0.00      63395.14         0.23327E+03   0.98843E+02   0.86420E+03   0.00000E+00
       0.00      63435.47         0.23264E+03   0.98572E+02   0.86184E+03   0.00000E+00
       0.00      63475.80         0.23200E+03   0.98303E+02   0.85950E+03   0.00000E+00
       0.00      63516.13         0.23138E+03   0.98037E+02   0.85719E+03   0.00000E+00
       0.00      63556.46         0.23076E+03   0.97773E+02   0.85489E+03   0.00000E+00
       0.00      63596.78         0.23014E+03   0.97511E+02   0.85261E+03   0.00000E+00
       0.00      63637.11         0.22953E+03   0.97252E+02   0.85036E+03   0.00000E+00
       0.00      63677.44         0.22892E+03   0.96995E+02   0.84812E+03   0.00000E+00
       0.00      63717.77         0.22833E+03   0.96740E+02   0.84591E+03   0.00000E+00
       0.00      63758.09         0.22773E+03   0.96487E+02   0.84371E+03   0.00000E+00
       0.00      63798.42         0.22714E+03   0.96238E+02   0.84153E+03   0.00000E+00
       0.00      63838.75         0.22656E+03   0.95989E+02   0.83937E+03   0.00000E+00
       0.00      63879.08         0.22598E+03   0.95743E+02   0.83723E+03   0.00000E+00
       0.00      63919.40         0.22541E+03   0.95500E+02   0.83511E+03   0.00000E+00
       0.00      63959.73         0.22484E+03   0.95258E+02   0.83301E+03   0.00000E+00
       0.00      64000.06         0.22427E+03   0.95018E+02   0.83093E+03   0.00000E+00
       0.00      64040.39         0.22371E+03   0.94781E+02   0.82886E+03   0.00000E+00
       0.00      64080.72         0.22316E+03   0.94545E+02   0.82681E+03   0.00000E+00
       0.00      64121.04         0.22261E+03   0.94313E+02   0.82479E+03   0.00000E+00
       0.00      64161.37         0.22207E+03   0.94081E+02   0.82277E+03   0.00000E+00
       0.00      64201.70         0.22153E+03   0.93852E+02   0.82078E+03   0.00000E+00
       0.00      64242.03         0.22099E+03   0.93625E+02   0.81881E+03   0.00000E+00
       0.00      64282.35         0.22047E+03   0.93400E+02   0.81685E+03   0.00000E+00
       0.00      64322.68         0.21994E+03   0.93177E+02   0.81491E+03   0.00000E+00
       0.00      64363.01         0.21942E+03   0.92956E+02   0.81298E+03   0.00000E+00
       0.00      64403.34         0.21890E+03   0.92737E+02   0.81108E+03   0.00000E+00
       0.00      64443.66         0.21839E+03   0.92520E+02   0.80919E+03   0.00000E+00
       0.00      64483.99         0.21789E+03   0.92304E+02   0.80732E+03   0.00000E+00
       0.00      64524.32         0.21738E+03   0.92091E+02   0.80546E+03   0.00000E+00
       0.00      64564.65         0.21689E+03   0.91880E+02   0.80363E+03   0.00000E+00
       0.00      64604.98         0.21639E+03   0.91670E+02   0.80180E+03   0.00000E+00
       0.00      64645.30         0.21591E+03   0.91463E+02   0.79999E+03   0.00000E+00
       0.00      64685.63         0.21542E+03   0.91257E+02   0.79820E+03   0.00000E+00
       0.00      64725.96         0.21494E+03   0.91053E+02   0.79643E+03   0.00000E+00
       0.00      64766.29         0.21447E+03   0.90851E+02   0.79468E+03   0.00000E+00
       0.00      64806.61         0.21400E+03   0.90651E+02   0.79293E+03   0.00000E+00
       0.00      64846.94         0.21353E+03   0.90453E+02   0.79121E+03   0.00000E+00
       0.00      64887.27         0.21307E+03   0.90256E+02   0.78950E+03   0.00000E+00
       0.00      64927.60         0.21261E+03   0.90061E+02   0.78780E+03   0.00000E+00
       0.00      64967.92         0.21215E+03   0.89868E+02   0.78612E+03   0.00000E+00
       0.00      65008.25         0.21170E+03   0.89677E+02   0.78446E+03   0.00000E+00
       0.00      65048.58         0.21126E+03   0.89487E+02   0.78281E+03   0.00000E+00
       0.00      65088.91         0.21081E+03   0.89299E+02   0.78117E+03   0.00000E+00
       0.00      65129.24         0.21038E+03   0.89113E+02   0.77955E+03   0.00000E+00
       0.00      65169.56         0.20994E+03   0.88928E+02   0.77795E+03   0.00000E+00
       0.00      65209.89         0.20951E+03   0.88745E+02   0.77636E+03   0.00000E+00
       0.00      65250.22         0.20909E+03   0.88564E+02   0.77478E+03   0.00000E+00
       0.00      65290.55         0.20866E+03   0.88385E+02   0.77322E+03   0.00000E+00
       0.00      65330.87         0.20825E+03   0.88207E+02   0.77168E+03   0.00000E+00
       0.00      65371.20         0.20783E+03   0.88031E+02   0.77015E+03   0.00000E+00
       0.00      65411.53         0.20742E+03   0.87857E+02   0.76863E+03   0.00000E+00
       0.00      65451.86         0.20701E+03   0.87684E+02   0.76712E+03   0.00000E+00
       0.00      65492.18         0.20661E+03   0.87513E+02   0.76563E+03   0.00000E+00
       0.00      65532.51         0.20621E+03   0.87343E+02   0.76416E+03   0.00000E+00
       0.00      65572.84         0.20582E+03   0.87175E+02   0.76269E+03   0.00000E+00
       0.00      65613.17         0.20542E+03   0.87008E+02   0.76124E+03   0.00000E+00
       0.00      65653.50         0.20504E+03   0.86843E+02   0.75981E+03   0.00000E+00
       0.00      65693.82         0.20465E+03   0.86680E+02   0.75839E+03   0.00000E+00
       0.00      65734.15         0.20427E+03   0.86518E+02   0.75698E+03   0.00000E+00
       0.00      65774.48         0.20389E+03   0.86358E+02   0.75559E+03   0.00000E+00
       0.00      65814.81         0.20352E+03   0.86199E+02   0.75421E+03   0.00000E+00
       0.00      65855.13         0.20315E+03   0.86041E+02   0.75284E+03   0.00000E+00
       0.00      65895.46         0.20278E+03   0.85886E+02   0.75148E+03   0.00000E+00
       0.00      65935.79         0.20242E+03   0.85731E+02   0.75014E+03   0.00000E+00
       0.00      65976.12         0.20206E+03   0.85579E+02   0.74881E+03   0.00000E+00
       0.00      66016.44         0.20170E+03   0.85427E+02   0.74750E+03   0.00000E+00
       0.00      66056.77         0.20135E+03   0.85278E+02   0.74619E+03   0.00000E+00
       0.00      66097.10         0.20100E+03   0.85129E+02   0.74490E+03   0.00000E+00
       0.00      66137.43         0.20066E+03   0.84982E+02   0.74362E+03   0.00000E+00
       0.00      66177.76         0.20031E+03   0.84837E+02   0.74236E+03   0.00000E+00
       0.00      66218.08         0.19998E+03   0.84692E+02   0.74110E+03   0.00000E+00
       0.00      66258.41         0.19964E+03   0.84550E+02   0.73986E+03   0.00000E+00
       0.00      66298.74         0.19931E+03   0.84408E+02   0.73863E+03   0.00000E+00
       0.00      66339.07         0.19898E+03   0.84268E+02   0.73742E+03   0.00000E+00
       0.00      66379.39         0.19865E+03   0.84130E+02   0.73621E+03   0.00000E+00
       0.00      66419.72         0.19833E+03   0.83993E+02   0.73502E+03   0.00000E+00
       0.00      66460.05         0.19801E+03   0.83857E+02   0.73384E+03   0.00000E+00
       0.00      66500.38         0.19769E+03   0.83723E+02   0.73268E+03   0.00000E+00
       0.00      66540.71         0.19738E+03   0.83590E+02   0.73152E+03   0.00000E+00
       0.00      66581.03         0.19707E+03   0.83458E+02   0.73037E+03   0.00000E+00
       0.00      66621.36         0.19677E+03   0.83328E+02   0.72924E+03   0.00000E+00
       0.00      66661.69         0.19646E+03   0.83199E+02   0.72812E+03   0.00000E+00
       0.00      66702.02         0.19616E+03   0.83071E+02   0.72701E+03   0.00000E+00
       0.00      66742.34         0.19586E+03   0.82945E+02   0.72591E+03   0.00000E+00
       0.00      66782.67         0.19557E+03   0.82820E+02   0.72482E+03   0.00000E+00
       0.00      66823.00         0.19528E+03   0.82696E+02   0.72375E+03   0.00000E+00
       0.00      66863.33         0.19499E+03   0.82573E+02   0.72268E+03   0.00000E+00
       0.00      66903.65         0.19471E+03   0.82453E+02   0.72163E+03   0.00000E+00
       0.00      66943.98         0.19442E+03   0.82333E+02   0.72059E+03   0.00000E+00
       0.00      66984.31         0.19415E+03   0.82214E+02   0.71956E+03   0.00000E+00
       0.00      67024.64         0.19387E+03   0.82097E+02   0.71854E+03   0.00000E+00
       0.00      67064.97         0.19360E+03   0.81981E+02   0.71754E+03   0.00000E+00
       0.00      67105.29         0.19333E+03   0.81866E+02   0.71654E+03   0.00000E+00
       0.00      67145.62         0.19306E+03   0.81753E+02   0.71555E+03   0.00000E+00
       0.00      67185.95         0.19280E+03   0.81641E+02   0.71458E+03   0.00000E+00
       0.00      67226.28         0.19254E+03   0.81529E+02   0.71361E+03   0.00000E+00
       0.00      67266.60         0.19228E+03   0.81420E+02   0.71266E+03   0.00000E+00
       0.00      67306.93         0.19202E+03   0.81311E+02   0.71171E+03   0.00000E+00
       0.00      67347.26         0.19177E+03   0.81204E+02   0.71078E+03   0.00000E+00
       0.00      67387.59         0.19152E+03   0.81098E+02   0.70986E+03   0.00000E+00
       0.00      67427.91         0.19127E+03   0.80993E+02   0.70895E+03   0.00000E+00
       0.00      67468.24         0.19103E+03   0.80889E+02   0.70805E+03   0.00000E+00
       0.00      67508.57         0.19079E+03   0.80786E+02   0.70715E+03   0.00000E+00
       0.00      67548.90         0.19055E+03   0.80685E+02   0.70627E+03   0.00000E+00
       0.00      67589.23         0.19032E+03   0.80585E+02   0.70541E+03   0.00000E+00
       0.00      67629.55         0.19008E+03   0.80486E+02   0.70455E+03   0.00000E+00
       0.00      67669.88         0.18985E+03   0.80388E+02   0.70369E+03   0.00000E+00
       0.00      67710.21         0.18963E+03   0.80292E+02   0.70286E+03   0.00000E+00
       0.00      67750.54         0.18940E+03   0.80196E+02   0.70203E+03   0.00000E+00
       0.00      67790.86         0.18918E+03   0.80102E+02   0.70121E+03   0.00000E+00
       0.00      67831.19         0.18896E+03   0.80009E+02   0.70040E+03   0.00000E+00
       0.00      67871.52         0.18874E+03   0.79917E+02   0.69960E+03   0.00000E+00
       0.00      67911.85         0.18853E+03   0.79826E+02   0.69881E+03   0.00000E+00
       0.00      67952.17         0.18832E+03   0.79736E+02   0.69803E+03   0.00000E+00
       0.00      67992.50         0.18811E+03   0.79647E+02   0.69726E+03   0.00000E+00
       0.00      68032.83         0.18791E+03   0.79560E+02   0.69651E+03   0.00000E+00
       0.00      68073.16         0.18770E+03   0.79474E+02   0.69576E+03   0.00000E+00
       0.00      68113.49         0.18750E+03   0.79388E+02   0.69502E+03   0.00000E+00
       0.00      68153.81         0.18730E+03   0.79304E+02   0.69428E+03   0.00000E+00
       0.00      68194.14         0.18711E+03   0.79221E+02   0.69356E+03   0.00000E+00
       0.00      68234.47         0.18692E+03   0.79140E+02   0.69286E+03   0.00000E+00
       0.00      68274.80         0.18673E+03   0.79059E+02   0.69216E+03   0.00000E+00
       0.00      68315.12         0.18654E+03   0.78979E+02   0.69146E+03   0.00000E+00
       0.00      68355.45         0.18635E+03   0.78900E+02   0.69078E+03   0.00000E+00
       0.00      68395.78         0.18617E+03   0.78823E+02   0.69011E+03   0.00000E+00
       0.00      68436.11         0.18599E+03   0.78746E+02   0.68944E+03   0.00000E+00
       0.00      68476.43         0.18582E+03   0.78671E+02   0.68879E+03   0.00000E+00
       0.00      68516.76         0.18564E+03   0.78596E+02   0.68814E+03   0.00000E+00
       0.00      68557.09         0.18547E+03   0.78523E+02   0.68751E+03   0.00000E+00
       0.00      68597.42         0.18530E+03   0.78451E+02   0.68688E+03   0.00000E+00
       0.00      68637.75         0.18513E+03   0.78380E+02   0.68627E+03   0.00000E+00
       0.00      68678.07         0.18497E+03   0.78310E+02   0.68566E+03   0.00000E+00
       0.00      68718.40         0.18481E+03   0.78241E+02   0.68506E+03   0.00000E+00
       0.00      68758.73         0.18465E+03   0.78172E+02   0.68447E+03   0.00000E+00
       0.00      68799.06         0.18449E+03   0.78106E+02   0.68389E+03   0.00000E+00
       0.00      68839.38         0.18433E+03   0.78039E+02   0.68332E+03   0.00000E+00
       0.00      68879.71         0.18418E+03   0.77975E+02   0.68276E+03   0.00000E+00
       0.00      68920.04         0.18403E+03   0.77911E+02   0.68221E+03   0.00000E+00
       0.00      68960.37         0.18388E+03   0.77848E+02   0.68166E+03   0.00000E+00
       0.00      69000.69         0.18374E+03   0.77787E+02   0.68113E+03   0.00000E+00
       0.00      69041.02         0.18360E+03   0.77726E+02   0.68060E+03   0.00000E+00
       0.00      69081.35         0.18346E+03   0.77666E+02   0.68008E+03   0.00000E+00
       0.00      69121.68         0.18332E+03   0.77607E+02   0.67957E+03   0.00000E+00
       0.00      69162.01         0.18318E+03   0.77549E+02   0.67908E+03   0.00000E+00
       0.00      69202.33         0.18305E+03   0.77493E+02   0.67859E+03   0.00000E+00
       0.00      69242.66         0.18292E+03   0.77438E+02   0.67811E+03   0.00000E+00
       0.00      69282.99         0.18279E+03   0.77383E+02   0.67763E+03   0.00000E+00
       0.00      69323.32         0.18267E+03   0.77329E+02   0.67717E+03   0.00000E+00
       0.00      69363.64         0.18254E+03   0.77276E+02   0.67671E+03   0.00000E+00
       0.00      69403.97         0.18242E+03   0.77225E+02   0.67627E+03   0.00000E+00
       0.00      69444.30         0.18230E+03   0.77174E+02   0.67583E+03   0.00000E+00
       0.00      69484.63         0.18219E+03   0.77124E+02   0.67540E+03   0.00000E+00
       0.00      69524.95         0.18207E+03   0.77076E+02   0.67498E+03   0.00000E+00
       0.00      69565.28         0.18196E+03   0.77028E+02   0.67457E+03   0.00000E+00
       0.00      69605.61         0.18185E+03   0.76981E+02   0.67417E+03   0.00000E+00
       0.00      69645.94         0.18174E+03   0.76936E+02   0.67377E+03   0.00000E+00
       0.00      69686.27         0.18164E+03   0.76891E+02   0.67338E+03   0.00000E+00
       0.00      69726.59         0.18154E+03   0.76847E+02   0.67301E+03   0.00000E+00
       0.00      69766.92         0.18144E+03   0.76804E+02   0.67264E+03   0.00000E+00
       0.00      69807.25         0.18134E+03   0.76763E+02   0.67228E+03   0.00000E+00
       0.00      69847.58         0.18124E+03   0.76722E+02   0.67193E+03   0.00000E+00
       0.00      69887.90         0.18115E+03   0.76682E+02   0.67158E+03   0.00000E+00
       0.00      69928.23         0.18106E+03   0.76643E+02   0.67125E+03   0.00000E+00
       0.00      69968.56         0.18097E+03   0.76605E+02   0.67092E+03   0.00000E+00
       0.00      70008.89         0.18088E+03   0.76568E+02   0.67060E+03   0.00000E+00
       0.00      70049.21         0.18080E+03   0.76532E+02   0.67029E+03   0.00000E+00
       0.00      70089.54         0.18072E+03   0.76497E+02   0.66999E+03   0.00000E+00
       0.00      70129.87         0.18064E+03   0.76462E+02   0.66970E+03   0.00000E+00
       0.00      70170.20         0.18056E+03   0.76429E+02   0.66941E+03   0.00000E+00
       0.00      70210.53         0.18048E+03   0.76397E+02   0.66914E+03   0.00000E+00
       0.00      70250.85         0.18041E+03   0.76366E+02   0.66887E+03   0.00000E+00
       0.00      70291.18         0.18034E+03   0.76336E+02   0.66861E+03   0.00000E+00
       0.00      70331.51         0.18027E+03   0.76307E+02   0.66836E+03   0.00000E+00
       0.00      70371.84         0.18021E+03   0.76278E+02   0.66812E+03   0.00000E+00
       0.00      70412.16         0.18014E+03   0.76250E+02   0.66788E+03   0.00000E+00
       0.00      70452.49         0.18008E+03   0.76224E+02   0.66765E+03   0.00000E+00
       0.00      70492.82         0.18002E+03   0.76198E+02   0.66743E+03   0.00000E+00
       0.00      70533.15         0.17996E+03   0.76174E+02   0.66722E+03   0.00000E+00
       0.00      70573.48         0.17991E+03   0.76150E+02   0.66702E+03   0.00000E+00
       0.00      70613.80         0.17986E+03   0.76127E+02   0.66683E+03   0.00000E+00
       0.00      70654.13         0.17981E+03   0.76106E+02   0.66664E+03   0.00000E+00
       0.00      70694.46         0.17976E+03   0.76084E+02   0.66646E+03   0.00000E+00
       0.00      70734.79         0.17971E+03   0.76065E+02   0.66629E+03   0.00000E+00
       0.00      70775.11         0.17967E+03   0.76045E+02   0.66613E+03   0.00000E+00
       0.00      70815.44         0.17962E+03   0.76027E+02   0.66598E+03   0.00000E+00
       0.00      70855.77         0.17958E+03   0.76010E+02   0.66583E+03   0.00000E+00
       0.00      70896.10         0.17955E+03   0.75994E+02   0.66570E+03   0.00000E+00
       0.00      70936.42         0.17951E+03   0.75979E+02   0.66557E+03   0.00000E+00
       0.00      70976.75         0.17948E+03   0.75965E+02   0.66545E+03   0.00000E+00
       0.00      71017.08         0.17945E+03   0.75951E+02   0.66534E+03   0.00000E+00
       0.00      71057.41         0.17942E+03   0.75939E+02   0.66524E+03   0.00000E+00
       0.00      71097.74         0.17939E+03   0.75927E+02   0.66514E+03   0.00000E+00
       0.00      71138.06         0.17937E+03   0.75917E+02   0.66505E+03   0.00000E+00
       0.00      71178.39         0.17935E+03   0.75907E+02   0.66497E+03   0.00000E+00
       0.00      71218.72         0.17933E+03   0.75898E+02   0.66490E+03   0.00000E+00
       0.00      71259.05         0.17931E+03   0.75890E+02   0.66484E+03   0.00000E+00
       0.00      71299.37         0.17929E+03   0.75883E+02   0.66478E+03   0.00000E+00
       0.00      71339.70         0.17928E+03   0.75877E+02   0.66474E+03   0.00000E+00
       0.00      71380.03         0.17927E+03   0.75872E+02   0.66469E+03   0.00000E+00
       0.00      71420.36         0.17926E+03   0.75867E+02   0.66466E+03   0.00000E+00
       0.00      71460.68         0.17925E+03   0.75865E+02   0.66464E+03   0.00000E+00
       0.00      71501.01         0.17925E+03   0.75862E+02   0.66463E+03   0.00000E+00
       0.00      71541.34         0.17925E+03   0.75861E+02   0.66462E+03   0.00000E+00
       0.00      71581.67         0.17925E+03   0.75860E+02   0.66462E+03   0.00000E+00
       0.00      71622.00         0.17925E+03   0.75861E+02   0.66463E+03   0.00000E+00
       0.00      71662.32         0.17925E+03   0.75862E+02   0.66465E+03   0.00000E+00
       0.00      71702.65         0.17926E+03   0.75864E+02   0.66467E+03   0.00000E+00
       0.00      71742.98         0.17927E+03   0.75867E+02   0.66470E+03   0.00000E+00
       0.00      71783.31         0.17928E+03   0.75872E+02   0.66475E+03   0.00000E+00
       0.00      71823.63         0.17929E+03   0.75877E+02   0.66479E+03   0.00000E+00
       0.00      71863.96         0.17930E+03   0.75883E+02   0.66485E+03   0.00000E+00
       0.00      71904.29         0.17932E+03   0.75890E+02   0.66492E+03   0.00000E+00
       0.00      71944.62         0.17934E+03   0.75898E+02   0.66500E+03   0.00000E+00
       0.00      71984.94         0.17936E+03   0.75906E+02   0.66508E+03   0.00000E+00
       0.00      72025.27         0.17939E+03   0.75916E+02   0.66517E+03   0.00000E+00
       0.00      72065.60         0.17941E+03   0.75927E+02   0.66527E+03   0.00000E+00
       0.00      72105.93         0.17944E+03   0.75938E+02   0.66537E+03   0.00000E+00
       0.00      72146.26         0.17947E+03   0.75951E+02   0.66549E+03   0.00000E+00
       0.00      72186.58         0.17950E+03   0.75964E+02   0.66561E+03   0.00000E+00
       0.00      72226.91         0.17954E+03   0.75978E+02   0.66574E+03   0.00000E+00
       0.00      72267.24         0.17957E+03   0.75993E+02   0.66588E+03   0.00000E+00
       0.00      72307.57         0.17961E+03   0.76009E+02   0.66602E+03   0.00000E+00
       0.00      72347.89         0.17965E+03   0.76027E+02   0.66618E+03   0.00000E+00
       0.00      72388.22         0.17970E+03   0.76045E+02   0.66634E+03   0.00000E+00
       0.00      72428.55         0.17974E+03   0.76064E+02   0.66652E+03   0.00000E+00
       0.00      72468.88         0.17979E+03   0.76084E+02   0.66669E+03   0.00000E+00
       0.00      72509.20         0.17984E+03   0.76104E+02   0.66688E+03   0.00000E+00
       0.00      72549.53         0.17989E+03   0.76126E+02   0.66708E+03   0.00000E+00
       0.00      72589.86         0.17995E+03   0.76149E+02   0.66728E+03   0.00000E+00
   
  Raman shift    inc freq             spec           a**2         g**2         d**2
  
 osc           1  nq max           1
